time (s)	coil I (A)	last det (V)	int current (uC)
6008.109041	1.489197	-0.001215	680.562927
6008.109905	1.888876	-0.001215	2312.551514
6008.110974	1.833962	-0.001215	4273.057129
6008.111992	1.769147	-0.001215	6074.048340
6008.112896	1.714662	-0.001215	7624.102539
6008.113874	1.657533	-0.001215	9245.169922
6008.114934	1.599653	-0.001215	10940.802734
6008.115849	1.550343	-0.001215	12359.366211
6008.116719	1.502487	-0.001215	13666.529297
6008.117811	1.448789	-0.001215	15248.607422
6008.118773	1.402094	-0.001215	16597.421875
6008.119664	1.361038	-0.001215	17810.105469
6008.120663	1.315034	-0.001215	19123.824219
6008.121727	1.271609	-0.001215	20476.816406
6008.122630	0.835129	-0.001215	21230.937500
6008.123524	0.094171	-0.001215	21315.126953
6008.124617	0.090696	-0.001215	21414.257812
6008.125572	0.090549	-0.001215	21500.732422
6008.126435	0.090586	-0.001215	21578.908203
6008.127470	0.090685	-0.001215	21672.767578
6008.128502	0.090582	-0.001215	21766.248047
6008.129383	0.090513	-0.001215	21845.990234
6008.130323	0.090615	-0.001215	21931.167969
6008.131360	0.090604	-0.001215	22025.125000
6008.132286	0.090560	-0.001215	22108.984375
6009.171474	1.519629	0.004038	764.373352
6009.172380	1.887327	0.004038	2474.291260
6009.173243	1.840569	0.004038	4062.702148
6009.174349	1.772358	0.004038	6022.930664
6009.175347	1.711403	0.004038	7730.910156
6009.176230	1.660400	0.004038	9197.043945
6009.177234	1.605732	0.004038	10809.199219
6009.178302	1.548025	0.004038	12462.490234
6009.179178	1.499810	0.004038	13776.323242
6009.180069	1.453630	0.004038	15071.507812
6009.181155	1.402848	0.004038	16595.000000
6009.182120	1.356178	0.004038	17903.710937
6009.182993	1.317828	0.004038	19054.175781
6009.184023	1.274531	0.004038	20366.943359
6009.185068	0.754519	0.004038	21155.416016
6009.185959	0.091710	0.004038	21237.128906
6009.186902	0.090516	0.004038	21322.486328
6009.187959	0.090604	0.004038	21418.255859
6009.188896	0.090582	0.004038	21503.130859
6009.189757	0.090568	0.004038	21581.109375
6009.190805	0.090619	0.004038	21676.078125
6009.191811	0.090597	0.004038	21767.218750
6009.192699	0.090480	0.004038	21847.564453
6009.193656	0.090648	0.004038	21934.314453
6009.194690	0.090652	0.004038	22028.048828
6010.202071	1.457314	-0.003434	642.675720
6010.202939	1.889454	-0.003434	2282.721924
6010.203878	1.843861	-0.003434	4014.107422
6010.204925	1.776822	-0.003434	5874.440430
6010.205824	1.721631	-0.003434	7422.186523
6010.206695	1.670607	-0.003434	8877.285156
6010.207729	1.613888	-0.003434	10546.044922
6010.208691	1.562391	-0.003434	12049.065430
6010.209572	1.514971	-0.003434	13383.754883
6010.210494	1.466982	-0.003434	14736.312500
6010.211560	1.416002	-0.003434	16245.770508
6010.212450	1.373566	-0.003434	17468.244141
6010.213362	1.332319	-0.003434	18683.320312
6010.214441	1.284954	-0.003434	20069.785156
6010.215388	1.158311	-0.003434	21166.705078
6010.216251	0.152611	-0.003434	21298.408203
6010.217292	0.090491	-0.003434	21392.609375
6010.218317	0.090465	-0.003434	21485.335937
6010.219193	0.090436	-0.003434	21564.558594
6010.220115	0.090564	-0.003434	21648.058594
6010.221196	0.090546	-0.003434	21745.937500
6010.222123	0.090549	-0.003434	21829.876953
6010.222990	0.090531	-0.003434	21908.367187
6010.224018	0.090579	-0.003434	22001.482422
6010.225042	0.090491	-0.003434	22094.144531
6011.260970	1.549277	0.000638	807.173462
6011.261932	1.884555	0.000638	2620.114746
6011.262814	1.836094	0.000638	4239.549316
6011.263749	1.776046	0.000638	5900.152344
6011.264820	1.711381	0.000638	7733.041016
6011.265716	1.659393	0.000638	9219.857422
6011.266649	1.608754	0.000638	10720.824219
6011.267706	1.551211	0.000638	12360.454102
6011.268653	1.500685	0.000638	13781.602539
6011.269519	1.456520	0.000638	15042.949219
6011.270570	1.405536	0.000638	16520.167969
6011.271589	1.359265	0.000638	17905.259766
6011.272484	1.318586	0.000638	19085.394531
6011.273443	1.277651	0.000638	20310.662109
6011.274497	0.804305	0.000638	21158.400391
6011.275411	0.092589	0.000638	21243.027344
6011.276266	0.090432	0.000638	21320.347656
6011.277340	0.090619	0.000638	21417.671875
6011.278338	0.090575	0.000638	21508.066406
6011.279210	0.090564	0.000638	21587.039062
6011.280182	0.090637	0.000638	21675.138672
6011.281228	0.090597	0.000638	21769.902344
6011.282126	0.090524	0.000638	21851.193359
6011.282994	0.090542	0.000638	21929.783203
6011.284062	0.090623	0.000638	22026.568359
6012.294687	1.504094	-0.001472	792.657654
6012.295595	1.886492	-0.001472	2505.592285
6012.296475	1.839840	-0.001472	4124.651367
6012.297370	1.781202	-0.001472	5718.827148
6012.298375	1.719379	-0.001472	7446.802734
6012.299311	1.666176	-0.001472	9006.342773
6012.300193	1.617396	-0.001472	10432.886719
6012.301215	1.563230	-0.001472	12030.507812
6012.302131	1.512451	-0.001472	13415.913086
6012.303054	1.465891	-0.001472	14768.930664
6012.303919	1.421517	-0.001472	15998.542969
6012.304952	1.375261	-0.001472	17419.187500
6012.305838	1.334674	-0.001472	18601.708984
6012.306710	1.294189	-0.001472	19730.242187
6012.307792	1.224950	-0.001472	21055.638672
6012.308707	0.203379	-0.001472	21241.730469
6012.309585	0.090469	-0.001472	21321.162109
6012.310561	0.090619	-0.001472	21409.605469
6012.311558	0.090564	-0.001472	21499.898437
6012.312449	0.090524	-0.001472	21580.554687
6012.313309	0.090564	-0.001472	21658.439453
6012.314372	0.090667	-0.001472	21754.818359
6012.315299	0.090491	-0.001472	21838.703125
6012.316170	0.090538	-0.001472	21917.562500
6012.317142	0.090630	-0.001472	22005.654297
6013.350919	1.503578	-0.003112	753.292480
6013.351840	1.886473	-0.003112	2490.734375
6013.352712	1.840100	-0.003112	4095.301758
6013.353754	1.774120	-0.003112	5943.934570
6013.354768	1.712289	-0.003112	7680.195312
6013.355662	1.660887	-0.003112	9165.028320
6013.356637	1.607787	-0.003112	10732.620117
6013.357710	1.549537	-0.003112	12395.273437
6013.358623	1.500754	-0.003112	13765.461914
6013.359491	1.455311	-0.003112	15028.671875
6013.360595	1.403441	-0.003112	16578.070312
6013.361581	1.357914	-0.003112	17916.972656
6013.362480	1.316246	-0.003112	19100.277344
6013.363360	1.278944	-0.003112	20225.748047
6013.364371	0.924576	-0.003112	21160.494141
6013.365287	0.097625	-0.003112	21249.917969
6013.366206	0.090425	-0.003112	21333.017578
6013.367070	0.090527	-0.003112	21411.232422
6013.368127	0.090535	-0.003112	21506.927734
6013.369002	0.090531	-0.003112	21586.142578
6013.369877	0.090549	-0.003112	21665.373047
6013.370855	0.090491	-0.003112	21753.873047
6013.371791	0.090535	-0.003112	21838.613281
6013.372703	0.090516	-0.003112	21921.164062
6013.373579	0.090527	-0.003112	22000.466797
6014.386746	1.570946	-0.002737	864.020325
6014.387797	1.879490	-0.002737	2839.364014
6014.388693	1.827770	-0.002737	4477.045898
6014.389614	1.768096	-0.002737	6105.461914
6014.390708	1.702419	-0.002737	7967.908691
6014.391663	1.648235	-0.002737	9541.972656
6014.392536	1.599690	-0.002737	10938.501953
6014.393586	1.544132	-0.002737	12559.840820
6014.394611	1.489768	-0.002737	14086.853516
6014.395504	1.445354	-0.002737	15377.554687
6014.396460	1.398398	-0.002737	16714.423828
6014.397525	1.348923	-0.002737	18151.027344
6014.398459	1.307395	-0.002737	19372.134766
6014.399327	1.270305	-0.002737	20474.759766
6014.400432	0.599579	-0.002737	21137.294922
6014.401420	0.090377	-0.002737	21226.587891
6014.402309	0.090531	-0.002737	21307.070312
6014.403305	0.090718	-0.002737	21397.425781
6014.404358	0.090590	-0.002737	21492.816406
6014.405249	0.090564	-0.002737	21573.509766
6014.406106	0.090593	-0.002737	21651.148437
6014.407181	0.090743	-0.002737	21748.697266
6014.408165	0.090564	-0.002737	21837.812500
6014.409023	0.090586	-0.002737	21915.535156
6014.410031	0.090656	-0.002737	22006.916016
6015.440391	1.503124	-0.003100	751.561890
6015.441386	1.883738	-0.003100	2625.880859
6015.442286	1.834230	-0.003100	4276.687500
6015.443288	1.770637	-0.003100	6050.866211
6015.444353	1.706803	-0.003100	7868.611328
6015.445246	1.654417	-0.003100	9346.005859
6015.446159	1.604297	-0.003100	10810.728516
6015.447238	1.546956	-0.003100	12479.893555
6015.448187	1.496349	-0.003100	13899.928711
6015.449052	1.452330	-0.003100	15156.194336
6015.450098	1.402478	-0.003100	16623.185547
6015.451126	1.355394	-0.003100	18016.531250
6015.452006	1.315763	-0.003100	19174.402344
6015.452971	1.274315	-0.003100	20404.117187
6015.454022	0.729723	-0.003100	21171.056641
6015.454949	0.091227	-0.003100	21255.623047
6015.455806	0.090439	-0.003100	21333.128906
6015.456832	0.090593	-0.003100	21426.078125
6015.457848	0.090553	-0.003100	21518.080078
6015.458735	0.090454	-0.003100	21598.312500
6015.459698	0.090586	-0.003100	21685.546875
6015.460756	0.090502	-0.003100	21781.296875
6015.461678	0.090425	-0.003100	21864.667969
6015.462546	0.090414	-0.003100	21943.146484
6015.463611	0.090586	-0.003100	22039.621094
6016.477213	1.530740	0.004554	777.615723
6016.478143	1.885818	0.004554	2531.426270
6016.479007	1.839254	0.004554	4120.541992
6016.480069	1.772289	0.004554	6002.712891
6016.481092	1.710128	0.004554	7752.173828
6016.481977	1.658756	0.004554	9220.172852
6016.482849	1.610947	0.004554	10624.918945
6016.483848	1.559073	0.004554	12182.433594
6016.484792	1.506486	0.004554	13604.555664
6016.485703	1.459589	0.004554	14934.241211
6016.486583	1.416346	0.004554	16180.625977
6016.487620	1.367523	0.004554	17598.748047
6016.488519	1.326086	0.004554	18790.900391
6016.489397	1.288704	0.004554	19922.382812
6016.490327	1.195177	0.004554	21033.896484
6016.491320	0.158361	0.004554	21191.148437
6016.492237	0.090352	0.004554	21274.000000
6016.493116	0.090557	0.004554	21353.599609
6016.494134	0.090542	0.004554	21445.771484
6016.495035	0.090505	0.004554	21527.316406
6016.495907	0.090527	0.004554	21606.255859
6016.496905	0.090681	0.004554	21696.755859
6016.497895	0.090469	0.004554	21786.320312
6016.498776	0.090472	0.004554	21866.027344
6016.499641	0.090553	0.004554	21944.355469
6017.531840	1.437693	0.001859	611.019470
6017.532821	1.885148	0.001859	2460.349365
6017.533869	1.831146	0.001859	4379.390625
6017.534795	1.771589	0.001859	6019.882324
6017.535658	1.717309	0.001859	7501.920410
6017.536707	1.656910	0.001859	9240.019531
6017.537718	1.601115	0.001859	10858.746094
6017.538609	1.554701	0.001859	12243.984375
6017.539586	1.502417	0.001859	13711.845703
6017.540651	1.448357	0.001859	15254.345703
6017.541560	1.404463	0.001859	16531.001953
6017.542426	1.362964	0.001859	17711.328125
6017.543533	1.314503	0.001859	19166.482422
6017.544503	1.272400	0.001859	20400.710937
6017.545438	0.856461	0.001859	21201.501953
6017.546314	0.094515	0.001859	21284.296875
6017.547291	0.090531	0.001859	21372.746094
6017.548213	0.090469	0.001859	21456.158203
6017.549134	0.090619	0.001859	21539.619141
6017.549997	0.090549	0.001859	21617.763672
6017.551035	0.090524	0.001859	21711.726562
6017.551917	0.090549	0.001859	21791.591797
6017.552782	0.090472	0.001859	21869.849609
6017.553741	0.090582	0.001859	21956.718750
6017.554679	0.090447	0.001859	22041.558594
6018.566743	1.573231	0.003325	912.474121
6018.567741	1.880182	0.003325	2788.895508
6018.568625	1.829659	0.003325	4406.314453
6018.569631	1.766071	0.003325	6182.981445
6018.570690	1.702797	0.003325	7986.243164
6018.571570	1.650820	0.003325	9438.964844
6018.572463	1.600686	0.003325	10868.376953
6018.573545	1.543249	0.003325	12538.172852
6018.574500	1.493379	0.003325	13964.349609
6018.575376	1.449137	0.003325	15233.793945
6018.576404	1.399918	0.003325	16672.910156
6018.577442	1.351527	0.003325	18075.794922
6018.578334	1.311720	0.003325	19245.849609
6018.579282	1.271917	0.003325	20451.626953
6018.580342	0.659436	0.003325	21150.628906
6018.581275	0.090560	0.003325	21235.121094
6018.582134	0.090454	0.003325	21312.820312
6018.583205	0.090670	0.003325	21409.927734
6018.584206	0.090513	0.003325	21500.531250
6018.585096	0.090520	0.003325	21581.093750
6018.586050	0.090586	0.003325	21667.513672
6018.587083	0.090590	0.003325	21761.091797
6018.588003	0.090524	0.003325	21844.373047
6018.588861	0.090542	0.003325	21922.058594
6018.589932	0.090615	0.003325	22019.107422
6019.623432	1.504102	0.000002	752.050781
6019.624381	1.885583	0.000002	2541.469482
6019.625247	1.839119	0.000002	4134.146484
6019.626273	1.773541	0.000002	5953.799805
6019.627314	1.710395	0.000002	7734.321289
6019.628205	1.658346	0.000002	9211.907227
6019.629130	1.607864	0.000002	10699.181641
6019.630209	1.549655	0.000002	12371.258789
6019.631164	1.498989	0.000002	13802.793945
6019.632035	1.454194	0.000002	15069.397461
6019.633097	1.403763	0.000002	16560.193359
6019.634099	1.357416	0.000002	17920.324219
6019.634993	1.316624	0.000002	19097.386719
6019.635974	1.275945	0.000002	20349.087891
6019.637025	0.760843	0.000002	21148.734375
6019.637938	0.091849	0.000002	21232.593750
6019.638854	0.090425	0.000002	21315.423828
6019.639713	0.090612	0.000002	21393.259766
6019.640759	0.090527	0.000002	21487.951172
6019.641631	0.090542	0.000002	21566.904297
6019.642502	0.090546	0.000002	21645.769531
6019.643457	0.090593	0.000002	21732.285156
6019.644414	0.090542	0.000002	21818.933594
6019.645327	0.090575	0.000002	21901.628906
6019.646203	0.090502	0.000002	21980.908203
6020.657615	1.442816	-0.002588	634.839111
6020.658475	1.888429	-0.002588	2258.888184
6020.659489	1.838357	-0.002588	4122.982422
6020.660528	1.772820	-0.002588	5964.942383
6020.661422	1.717449	-0.002588	7500.341797
6020.662356	1.663418	-0.002588	9053.974609
6020.663432	1.604451	-0.002588	10780.363281
6020.664375	1.554434	-0.002588	12246.194336
6020.665251	1.506878	-0.002588	13566.218750
6020.666311	1.453524	-0.002588	15106.954102
6020.667328	1.404287	-0.002588	16535.113281
6020.668221	1.362869	-0.002588	17752.154297
6020.669178	1.319788	-0.002588	19015.191406
6020.670233	1.274465	-0.002588	20359.751953
6020.671168	0.897111	-0.002588	21198.550781
6020.672038	0.096427	-0.002588	21282.441406
6020.673105	0.090491	-0.002588	21378.994141
6020.674087	0.090406	-0.002588	21467.773437
6020.674973	0.090439	-0.002588	21547.902344
6020.675962	0.090542	-0.002588	21637.449219
6020.677018	0.090458	-0.002588	21732.972656
6020.677914	0.090586	-0.002588	21814.136719
6020.678771	0.090575	-0.002588	21891.759766
6020.679864	0.090626	-0.002588	21990.814453
6020.680844	0.090396	-0.002588	22079.402344
6021.715902	1.436979	0.002133	609.278992
6021.716948	1.884108	0.002133	2580.055420
6021.717840	1.835211	0.002133	4217.063477
6021.718769	1.777002	0.002133	5867.898437
6021.719635	1.721001	0.002133	7358.285156
6021.720659	1.663345	0.002133	9061.549805
6021.721560	1.614316	0.002133	10516.048828
6021.722426	1.565735	0.002133	11871.975586
6021.723526	1.508624	0.002133	13531.461914
6021.724456	1.460922	0.002133	14890.119141
6021.725338	1.417917	0.002133	16140.722656
6021.726323	1.372148	0.002133	17492.289062
6021.727339	1.324819	0.002133	18838.304687
6021.728236	1.287019	0.002133	19992.761719
6021.729099	1.192837	0.002133	21022.179687
6021.730196	0.145312	0.002133	21181.587891
6021.731097	0.090337	0.002133	21262.980469
6021.731966	0.090480	0.002133	21341.607422
6021.732960	0.090579	0.002133	21431.642578
6021.733959	0.090443	0.002133	21521.996094
6021.734836	0.090505	0.002133	21601.369141
6021.735798	0.090553	0.002133	21688.480469
6021.736868	0.090535	0.002133	21785.353516
6021.737765	0.090527	0.002133	21866.556641
6021.738628	0.090575	0.002133	21944.722656
6022.744503	1.433551	-0.008067	603.524963
6022.745402	1.885994	-0.008067	2299.033203
6022.746504	1.831743	-0.008067	4317.614258
6022.747464	1.770707	-0.008067	6017.492676
6022.748335	1.717222	-0.008067	7513.192871
6022.749366	1.657958	-0.008067	9222.546875
6022.750398	1.602327	-0.008067	10876.148437
6022.751295	1.553562	-0.008067	12269.693359
6022.752249	1.502944	-0.008067	13703.501953
6022.753307	1.448767	-0.008067	15236.297852
6022.754248	1.403884	-0.008067	16557.353516
6022.755117	1.362671	-0.008067	17741.513672
6022.756195	1.314668	-0.008067	19158.726562
6022.757204	1.271279	-0.008067	20441.447266
6022.758105	0.866733	-0.008067	21222.375000
6022.759076	0.095101	-0.008067	21314.718750
6022.760128	0.090513	-0.008067	21409.937500
6022.761028	0.090487	-0.008067	21491.375000
6022.761884	0.090571	-0.008067	21568.904297
6022.762965	0.090575	-0.008067	21666.816406
6022.763958	0.090498	-0.008067	21756.681641
6022.764832	0.090505	-0.008067	21835.783203
6022.765834	0.090531	-0.008067	21926.496094
6022.766880	0.090538	-0.008067	22021.199219
6022.767768	0.090509	-0.008067	22101.570312
6023.810067	1.518160	0.000872	774.261841
6023.810962	1.886356	0.000872	2462.550537
6023.811825	1.839283	0.000872	4049.852051
6023.812945	1.770817	0.000872	6033.166504
6023.813923	1.711238	0.000872	7706.756836
6023.814788	1.661041	0.000872	9143.557617
6023.815862	1.602883	0.000872	10865.054687
6023.816915	1.546853	0.000872	12493.890625
6023.817797	1.498550	0.000872	13815.611328
6023.818719	1.451320	0.000872	15153.728516
6023.819781	1.400149	0.000872	16640.687500
6023.820733	1.356760	0.000872	17932.324219
6023.821603	1.317598	0.000872	19078.634766
6023.822641	1.272440	0.000872	20399.427734
6023.823670	0.735780	0.000872	21156.544922
6023.824558	0.091523	0.000872	21237.818359
6023.825518	0.090472	0.000872	21324.671875
6023.826564	0.090593	0.000872	21419.431641
6023.827496	0.090472	0.000872	21503.751953
6023.828357	0.090480	0.000872	21581.654297
6023.829426	0.090590	0.000872	21678.494141
6023.830429	0.090480	0.000872	21769.246094
6023.831327	0.090458	0.000872	21850.476562
6023.832291	0.090612	0.000872	21937.826172
6023.833336	0.090535	0.000872	22032.435547
6024.833537	1.520585	-0.001493	726.839478
6024.834430	1.887052	-0.001493	2411.977051
6024.835307	1.842986	-0.001493	4028.275391
6024.836280	1.781550	-0.001493	5761.723633
6024.837244	1.721367	-0.001493	7421.121582
6024.838127	1.669834	-0.001493	8895.584961
6024.839055	1.618356	-0.001493	10397.418945
6024.840124	1.562175	-0.001493	12067.384766
6024.841010	1.513400	-0.001493	13408.256836
6024.841875	1.468319	-0.001493	14678.352539
6024.842923	1.417782	-0.001493	16164.187500
6024.843876	1.373269	-0.001493	17472.912109
6024.844751	1.334026	-0.001493	18640.185547
6024.845647	1.292476	-0.001493	19798.244141
6024.846759	1.199103	-0.001493	21131.646484
6024.847641	0.175811	-0.001493	21286.710937
6024.848507	0.090465	-0.001493	21365.052734
6024.849538	0.090743	-0.001493	21458.609375
6024.850509	0.090549	-0.001493	21546.533203
6024.851380	0.090549	-0.001493	21625.402344
6024.852386	0.090608	-0.001493	21716.554687
6024.853430	0.090586	-0.001493	21811.126953
6024.854319	0.090546	-0.001493	21891.621094
6024.855223	0.090582	-0.001493	21973.507812
6024.856303	0.090659	-0.001493	22071.419922
6025.904096	1.496730	0.003668	672.031677
6025.904968	1.888066	0.003668	2318.425537
6025.905991	1.837778	0.003668	4198.472656
6025.906988	1.772758	0.003668	5965.912109
6025.907877	1.718386	0.003668	7493.557617
6025.908738	1.666073	0.003668	8928.046875
6025.909839	1.608435	0.003668	10698.933594
6025.910736	1.560154	0.003668	12098.391602
6025.911607	1.513308	0.003668	13416.482422
6025.912613	1.461823	0.003668	14887.076172
6025.913607	1.412747	0.003668	16291.345703
6025.914501	1.371237	0.003668	17517.230469
6025.915367	1.330433	0.003668	18669.386719
6025.916468	1.283375	0.003668	20082.382812
6025.917384	1.165994	0.003668	21150.433594
6025.918265	0.152930	0.003668	21285.164062
6025.919243	0.090619	0.003668	21373.789062
6025.920240	0.090509	0.003668	21464.027344
6025.921135	0.090516	0.003668	21545.039062
6025.922129	0.090670	0.003668	21635.166016
6025.923169	0.090619	0.003668	21729.410156
6025.924065	0.090674	0.003668	21810.654297
6025.924921	0.090604	0.003668	21888.210937
6025.926024	0.090688	0.003668	21988.240234
6025.927016	0.090568	0.003668	22078.083984
6026.920896	1.443076	0.000731	614.750427
6026.921850	1.885173	0.000731	2413.205811
6026.922911	1.830776	0.000731	4355.659668
6026.923837	1.771278	0.000731	5995.863281
6026.924703	1.717291	0.000731	7483.037598
6026.925771	1.656866	0.000731	9252.571289
6026.926789	1.601246	0.000731	10882.640625
6026.927673	1.554265	0.000731	12256.611328
6026.928665	1.501718	0.000731	13746.315430
6026.929710	1.448372	0.000731	15259.863281
6026.930612	1.404507	0.000731	16526.728516
6026.931474	1.362967	0.000731	17701.605469
6026.932551	1.315250	0.000731	19118.130859
6026.933552	1.272041	0.000731	20391.443359
6026.934447	0.911433	0.000731	21207.175781
6026.935434	0.096332	0.000731	21302.255859
6026.936498	0.090564	0.000731	21398.615234
6026.937387	0.090582	0.000731	21479.142578
6026.938260	0.090597	0.000731	21558.234375
6026.939370	0.090637	0.000731	21658.841797
6026.940322	0.090469	0.000731	21744.968750
6026.941187	0.090553	0.000731	21823.296875
6026.942269	0.090634	0.000731	21921.363281
6026.943294	0.090656	0.000731	22014.285156
6026.944182	0.090538	0.000731	22094.683594
6027.995679	1.535947	0.000131	783.333069
6027.996680	1.881720	0.000131	2666.934814
6027.997573	1.832395	0.000131	4303.263672
6027.998559	1.769546	0.000131	6048.035645
6027.999611	1.705682	0.000131	7842.413574
6028.000530	1.652831	0.000131	9361.365234
6028.001400	1.602876	0.000131	10755.867187
6028.002516	1.545938	0.000131	12481.133789
6028.003493	1.494067	0.000131	13940.837891
6028.004364	1.449492	0.000131	15203.345703
6028.005414	1.399186	0.000131	16672.490234
6028.006467	1.351868	0.000131	18096.007812
6028.007358	1.312031	0.000131	19265.027344
6028.008247	1.272473	0.000131	20396.255859
6028.009337	0.665922	0.000131	21122.111328
6028.010285	0.090546	0.000131	21207.949219
6028.011147	0.090637	0.000131	21286.078125
6028.012204	0.090630	0.000131	21381.873047
6028.013223	0.090575	0.000131	21474.167969
6028.014106	0.090513	0.000131	21554.089844
6028.015065	0.090685	0.000131	21641.056641
6028.016120	0.090619	0.000131	21736.660156
6028.017035	0.090604	0.000131	21819.562500
6028.017891	0.090502	0.000131	21897.031250
6028.018933	0.090626	0.000131	21991.462891
6029.011965	1.464349	-0.001489	721.924255
6029.013016	1.881764	-0.001489	2699.658203
6029.013900	1.831736	-0.001489	4318.913086
6029.014761	1.775998	-0.001489	5848.047852
6029.015793	1.713582	-0.001489	7616.463867
6029.016762	1.658181	-0.001489	9223.241211
6029.017639	1.609526	-0.001489	10634.795898
6029.018531	1.559264	-0.001489	12025.659180
6029.019650	1.502523	-0.001489	13706.982422
6029.020526	1.456780	-0.001489	14983.121094
6029.021402	1.412443	-0.001489	16220.420898
6029.022503	1.363257	-0.001489	17721.367187
6029.023461	1.320652	-0.001489	18986.550781
6029.024330	1.282430	-0.001489	20100.982422
6029.025358	0.975513	-0.001489	21103.808594
6029.026412	0.094969	-0.001489	21203.906250
6029.027301	0.090461	-0.001489	21284.326172
6029.028229	0.090626	-0.001489	21368.427734
6029.029293	0.090732	-0.001489	21464.966797
6029.030237	0.090557	-0.001489	21550.453125
6029.031100	0.090487	-0.001489	21628.542969
6029.032149	0.090590	-0.001489	21723.572266
6029.033151	0.090579	-0.001489	21814.332031
6029.034037	0.090564	-0.001489	21894.572266
6029.035003	0.090641	-0.001489	21982.130859
6030.088211	1.483663	0.001025	758.151978
6030.089260	1.880292	0.001025	2730.578125
6030.090186	1.827704	0.001025	4423.031738
6030.091049	1.771168	0.001025	5951.549805
6030.092126	1.707114	0.001025	7790.111816
6030.093150	1.648499	0.001025	9478.173828
6030.094029	1.601133	0.001025	10885.569336
6030.095038	1.547996	0.001025	12447.497070
6030.096103	1.490856	0.001025	14035.258789
6030.097007	1.444666	0.001025	15341.236328
6030.097870	1.401160	0.001025	16550.437500
6030.098963	1.352644	0.001025	18028.876953
6030.099921	1.308849	0.001025	19282.753906
6030.100797	1.272704	0.001025	20397.642578
6030.101807	0.737454	0.001025	21142.470703
6030.102860	0.090740	0.001025	21238.019531
6030.103744	0.090476	0.001025	21318.000000
6030.104625	0.090524	0.001025	21397.751953
6030.105704	0.090568	0.001025	21495.474609
6030.106664	0.090469	0.001025	21582.324219
6030.107525	0.090491	0.001025	21660.236328
6030.108580	0.090601	0.001025	21755.820312
6030.109610	0.090465	0.001025	21849.000000
6030.110497	0.090524	0.001025	21929.294922
6030.111421	0.090469	0.001025	22012.888672
6031.102970	1.520032	0.003217	717.454956
6031.103855	1.886986	0.003217	2387.437744
6031.104727	1.843689	0.003217	3995.134521
6031.105716	1.781331	0.003217	5756.870605
6031.106686	1.720734	0.003217	7425.982422
6031.107612	1.667373	0.003217	8969.969727
6031.108474	1.618806	0.003217	10365.380859
6031.109491	1.565006	0.003217	11956.992187
6031.110394	1.515718	0.003217	13325.685547
6031.111275	1.470114	0.003217	14620.855469
6031.112206	1.424301	0.003217	15946.878906
6031.113192	1.378605	0.003217	17306.183594
6031.114111	1.336099	0.003217	18534.058594
6031.114993	1.296680	0.003217	19677.730469
6031.116063	1.253489	0.003217	21018.962891
6031.116969	0.277441	0.003217	21270.324219
6031.117830	0.090300	0.003217	21348.072266
6031.118881	0.090579	0.003217	21443.269531
6031.119838	0.090425	0.003217	21529.806641
6031.120721	0.090491	0.003217	21609.708984
6031.121577	0.090465	0.003217	21687.146484
6031.122686	0.090553	0.003217	21787.570312
6031.123561	0.090432	0.003217	21866.699219
6031.124433	0.090461	0.003217	21945.582031
6031.125414	0.090612	0.003217	22034.472656
6032.175143	1.546732	0.000373	799.660522
6032.176160	1.881310	0.000373	2712.952637
6032.177056	1.830634	0.000373	4353.200195
6032.178024	1.769722	0.000373	6066.291016
6032.179077	1.705137	0.000373	7861.799805
6032.179998	1.652278	0.000373	9383.547852
6032.180864	1.602729	0.000373	10771.511719
6032.181949	1.546172	0.000373	12449.108398
6032.182955	1.493386	0.000373	13951.455078
6032.183837	1.448610	0.000373	15229.128906
6032.184836	1.401218	0.000373	16628.945312
6032.185887	1.352864	0.000373	18050.804687
6032.186790	1.310347	0.000373	19234.046875
6032.187696	1.272978	0.000373	20387.365234
6032.188579	0.883352	0.000373	21167.365234
6032.189609	0.091959	0.000373	21262.083984
6032.190502	0.090443	0.000373	21342.849609
6032.191383	0.090487	0.000373	21422.568359
6032.192366	0.090571	0.000373	21511.599609
6032.193319	0.090439	0.000373	21597.789062
6032.194244	0.090527	0.000373	21681.527344
6032.195112	0.090491	0.000373	21760.074219
6032.196133	0.090524	0.000373	21852.498047
6032.197008	0.090410	0.000373	21931.607422
6032.197876	0.090472	0.000373	22010.136719
6033.198141	1.571316	0.001170	875.223022
6033.199200	1.878633	0.001170	2864.695312
6033.200089	1.826052	0.001170	4488.055664
6033.200978	1.767733	0.001170	6059.570312
6033.202069	1.703101	0.001170	7917.653320
6033.203033	1.648389	0.001170	9506.700195
6033.203904	1.599818	0.001170	10900.141602
6033.204947	1.544257	0.001170	12510.800781
6033.205970	1.490643	0.001170	14035.728516
6033.206859	1.445515	0.001170	15320.791016
6033.207801	1.400779	0.001170	16640.324219
6033.208846	1.353124	0.001170	18054.337891
6033.209781	1.311123	0.001170	19280.238281
6033.210647	1.273330	0.001170	20382.941406
6033.211716	0.735300	0.001170	21168.976562
6033.212745	0.090707	0.001170	21262.314453
6033.213621	0.090374	0.001170	21341.482422
6033.214568	0.090483	0.001170	21427.169922
6033.215633	0.090538	0.001170	21523.593750
6033.216540	0.090469	0.001170	21605.648437
6033.217409	0.090483	0.001170	21684.279297
6033.218465	0.090549	0.001170	21779.898437
6033.219467	0.090476	0.001170	21870.554687
6033.220363	0.090403	0.001170	21951.554687
6033.221340	0.090571	0.001170	22040.042969
6034.260927	1.438121	0.005352	609.763428
6034.261835	1.885605	0.005352	2321.893066
6034.262861	1.835643	0.005352	4205.263184
6034.263747	1.778731	0.005352	5781.218262
6034.264619	1.724985	0.005352	7285.405273
6034.265649	1.667380	0.005352	9002.806641
6034.266537	1.615466	0.005352	10437.340820
6034.267423	1.568042	0.005352	11826.625977
6034.268413	1.515384	0.005352	13326.856445
6034.269416	1.463390	0.005352	14794.636719
6034.270309	1.419558	0.005352	16062.301758
6034.271173	1.376876	0.005352	17251.921875
6034.272274	1.327665	0.005352	18713.681641
6034.273197	1.288400	0.005352	19902.875000
6034.274077	1.253412	0.005352	21005.876953
6034.275058	0.274698	0.005352	21275.355469
6034.276044	0.090267	0.005352	21364.359375
6034.276931	0.090396	0.005352	21444.541016
6034.277789	0.090505	0.005352	21522.195312
6034.278861	0.090516	0.005352	21619.228516
6034.279786	0.090498	0.005352	21702.939453
6034.280642	0.090458	0.005352	21780.371094
6034.281698	0.090564	0.005352	21876.005859
6034.282704	0.090469	0.005352	21967.017578
6034.283584	0.090557	0.005352	22046.707031
6035.293630	1.435759	0.003370	607.326172
6035.294657	1.883251	0.003370	2541.424805
6035.295701	1.828001	0.003370	4449.857422
6035.296585	1.770103	0.003370	6014.627930
6035.297487	1.713695	0.003370	7560.380859
6035.298577	1.652900	0.003370	9362.041992
6035.299526	1.600470	0.003370	10880.887695
6035.300388	1.552932	0.003370	12219.515625
6035.301422	1.498978	0.003370	13769.458984
6035.302460	1.446398	0.003370	15270.820312
6035.303354	1.403247	0.003370	16525.322266
6035.304316	1.360148	0.003370	17833.785156
6035.305368	1.312606	0.003370	19214.646484
6035.306305	1.271898	0.003370	20406.414062
6035.307179	0.904838	0.003370	21197.242187
6035.308237	0.092366	0.003370	21294.964844
6035.309249	0.090414	0.003370	21386.462891
6035.310141	0.090454	0.003370	21467.148437
6035.311052	0.090509	0.003370	21549.601562
6035.311914	0.090454	0.003370	21627.572266
6035.312911	0.090410	0.003370	21717.710937
6035.313827	0.090436	0.003370	21800.550781
6035.314693	0.090476	0.003370	21878.902344
6035.315721	0.090487	0.003370	21971.923828
6035.316585	0.090374	0.003370	22050.005859
6036.347969	1.578021	-0.002810	860.021606
6036.349005	1.879391	-0.002810	2807.070557
6036.349903	1.827418	-0.002810	4448.092285
6036.350836	1.767938	-0.002810	6097.578613
6036.351902	1.703668	-0.002810	7913.688965
6036.352838	1.650110	-0.002810	9458.191406
6036.353701	1.602334	-0.002810	10841.005859
6036.354774	1.544703	-0.002810	12498.472656
6036.355795	1.491017	-0.002810	14020.800781
6036.356678	1.446083	-0.002810	15297.691406
6036.357652	1.400035	-0.002810	16661.326172
6036.358707	1.352454	-0.002810	18088.164062
6036.359623	1.310358	-0.002810	19288.451172
6036.360534	1.270734	-0.002810	20446.089844
6036.361414	0.861782	-0.002810	21204.458984
6036.362442	0.091776	-0.002810	21298.804687
6036.363331	0.090439	-0.002810	21379.205078
6036.364202	0.090425	-0.002810	21457.964844
6036.365164	0.090557	-0.002810	21545.080078
6036.366127	0.090406	-0.002810	21632.140625
6036.367039	0.090469	-0.002810	21714.648437
6036.367903	0.090432	-0.002810	21792.781250
6036.368947	0.090498	-0.002810	21887.261719
6036.369827	0.090421	-0.002810	21966.832031
6036.370695	0.090560	-0.002810	22045.437500
6037.388814	1.506354	-0.002488	763.721375
6037.389692	1.886342	-0.002488	2419.929199
6037.390583	1.839481	-0.002488	4058.906982
6037.391673	1.771652	-0.002488	5990.007324
6037.392629	1.713347	-0.002488	7627.967285
6037.393494	1.662982	-0.002488	9066.447266
6037.394529	1.606816	-0.002488	10729.501953
6037.395561	1.551229	-0.002488	12330.370117
6037.396441	1.503234	-0.002488	13653.215820
6037.397391	1.455355	-0.002488	15035.803711
6037.398463	1.403412	-0.002488	16540.261719
6037.399402	1.360342	-0.002488	17817.623047
6037.400273	1.319993	-0.002488	18967.335937
6037.401324	1.275026	-0.002488	20307.388672
6037.402352	0.826553	-0.002488	21157.083984
6037.403241	0.093014	-0.002488	21239.773437
6037.404204	0.090483	-0.002488	21326.908203
6037.405243	0.090516	-0.002488	21420.955078
6037.406162	0.090392	-0.002488	21504.025391
6037.407025	0.090546	-0.002488	21582.166016
6037.408104	0.090582	-0.002488	21679.904297
6037.409103	0.090417	-0.002488	21770.230469
6037.409989	0.090590	-0.002488	21850.492187
6037.410980	0.090619	-0.002488	21940.294922
6037.412016	0.090586	-0.002488	22034.142578
6038.435800	1.469927	-0.000062	652.647461
6038.436664	1.887719	-0.000062	2283.636230
6038.437687	1.837372	-0.000062	4163.267578
6038.438740	1.770637	-0.000062	6027.748535
6038.439627	1.715438	-0.000062	7549.342285
6038.440549	1.661730	-0.000062	9081.457031
6038.441624	1.603202	-0.000062	10804.899414
6038.442565	1.551515	-0.000062	12264.875000
6038.443427	1.505852	-0.000062	13562.919922
6038.444448	1.453696	-0.000062	15047.143555
6038.445484	1.404261	-0.000062	16501.958984
6038.446378	1.363034	-0.000062	17720.511719
6038.447331	1.320597	-0.000062	18979.041016
6038.448394	1.274052	-0.000062	20333.357422
6038.449329	0.913751	-0.000062	21187.714844
6038.450200	0.097365	-0.000062	21272.519531
6038.451272	0.090491	-0.000062	21369.525391
6038.452272	0.090549	-0.000062	21460.074219
6038.453163	0.090447	-0.000062	21540.662109
6038.454122	0.090630	-0.000062	21627.576172
6038.455172	0.090516	-0.000062	21722.619141
6038.456089	0.090454	-0.000062	21805.566406
6038.456951	0.090579	-0.000062	21883.644531
6038.458023	0.090560	-0.000062	21980.724609
6038.459007	0.090399	-0.000062	22069.677734
6039.479748	1.449452	0.002508	626.163208
6039.480611	1.886825	0.002508	2254.493164
6039.481700	1.834548	0.002508	4252.316406
6039.482618	1.775314	0.002508	5882.054687
6039.483480	1.720767	0.002508	7365.355469
6039.484568	1.659862	0.002508	9171.285156
6039.485563	1.604410	0.002508	10767.673828
6039.486442	1.556140	0.002508	12135.521484
6039.487422	1.503827	0.002508	13609.271484
6039.488500	1.450752	0.002508	15173.181641
6039.489394	1.406008	0.002508	16430.152344
6039.490264	1.362481	0.002508	17615.509766
6039.491362	1.315331	0.002508	19059.742187
6039.492347	1.274923	0.002508	20315.541016
6039.493218	1.009340	0.002508	21194.675781
6039.494273	0.095896	0.002508	21295.845703
6039.495304	0.090469	0.002508	21389.119141
6039.496193	0.090480	0.002508	21469.554687
6039.497108	0.090491	0.002508	21552.353516
6039.498167	0.090623	0.002508	21648.322266
6039.499115	0.090494	0.002508	21734.111328
6039.499982	0.090531	0.002508	21812.601562
6039.501029	0.090604	0.002508	21907.464844
6039.502051	0.090454	0.002508	21999.908203
6039.502939	0.090502	0.002508	22080.273437
6040.528400	1.511232	0.001037	766.194458
6040.529295	1.885598	0.001037	2453.804687
6040.530160	1.838452	0.001037	4044.065918
6040.531266	1.770187	0.001037	6001.892578
6040.532245	1.711304	0.001037	7677.258789
6040.533113	1.660895	0.001037	9118.915039
6040.534162	1.603301	0.001037	10800.777344
6040.535205	1.547574	0.001037	12414.897461
6040.536093	1.499766	0.001037	13746.689453
6040.537014	1.452492	0.001037	15084.434570
6040.538092	1.400929	0.001037	16594.636719
6040.539041	1.357939	0.001037	17883.320312
6040.539910	1.317945	0.001037	19028.615234
6040.540969	1.272909	0.001037	20376.625000
6040.541994	0.761067	0.001037	21156.718750
6040.542879	0.092135	0.001037	21238.257812
6040.543838	0.090575	0.001037	21325.119141
6040.544868	0.090579	0.001037	21418.416016
6040.545796	0.090505	0.001037	21502.404297
6040.546657	0.090524	0.001037	21580.345703
6040.547724	0.090645	0.001037	21677.062500
6040.548724	0.090505	0.001037	21767.568359
6040.549591	0.090491	0.001037	21846.023437
6040.550561	0.090597	0.001037	21933.902344
6040.551615	0.090553	0.001037	22029.345703
6041.569219	1.456893	0.000050	630.834778
6041.570099	1.887514	0.000050	2291.846680
6041.571093	1.839089	0.000050	4119.901367
6041.572094	1.774490	0.000050	5896.165527
6041.572992	1.719767	0.000050	7440.516113
6041.573856	1.667146	0.000050	8880.930664
6041.574971	1.607783	0.000050	10673.609375
6041.575880	1.556898	0.000050	12088.830078
6041.576765	1.510979	0.000050	13426.046875
6041.577794	1.459362	0.000050	14927.729492
6041.578779	1.410758	0.000050	16317.326172
6041.579667	1.370021	0.000050	17533.904297
6041.580531	1.329606	0.000050	18682.683594
6041.581637	1.283760	0.000050	20102.521484
6041.582537	1.158486	0.000050	21145.158203
6041.583411	0.152340	0.000050	21278.302734
6041.584408	0.090428	0.000050	21368.458984
6041.585413	0.090410	0.000050	21459.320312
6041.586306	0.090476	0.000050	21540.115234
6041.587284	0.090619	0.000050	21628.740234
6041.588333	0.090516	0.000050	21723.691406
6041.589237	0.090557	0.000050	21805.554687
6041.590099	0.090535	0.000050	21883.595703
6041.591192	0.090575	0.000050	21982.593750
6041.592153	0.090428	0.000050	22069.496094
6042.621921	1.498564	-0.000228	674.354004
6042.622804	1.887048	-0.000228	2340.617676
6042.623814	1.836859	-0.000228	4195.845215
6042.624865	1.769850	-0.000228	6055.957031
6042.625758	1.713856	-0.000228	7586.430664
6042.626685	1.661213	-0.000228	9126.375000
6042.627552	1.610907	-0.000228	10523.031250
6042.628610	1.556118	-0.000228	12169.404297
6042.629483	1.508155	-0.000228	13486.024414
6042.630363	1.464071	-0.000228	14774.407227
6042.631362	1.415713	-0.000228	16188.704102
6042.632306	1.370925	-0.000228	17482.857422
6042.633236	1.327855	-0.000228	18717.763672
6042.634107	1.290410	-0.000228	19841.710937
6042.635141	1.217186	-0.000228	21100.281250
6042.636045	0.182058	-0.000228	21264.861328
6042.636919	0.090374	-0.000228	21343.847656
6042.637912	0.090546	-0.000228	21433.759766
6042.638865	0.090586	-0.000228	21520.087891
6042.639788	0.090458	-0.000228	21603.580078
6042.640652	0.090524	-0.000228	21681.792969
6042.641686	0.090553	-0.000228	21775.423828
6042.642561	0.090538	-0.000228	21854.644531
6042.643434	0.090505	-0.000228	21933.656250
6042.644362	0.090527	-0.000228	22017.666016
6043.656117	1.431167	-0.000739	601.090149
6043.657102	1.884265	-0.000739	2457.091309
6043.658163	1.829810	-0.000739	4398.519531
6043.659058	1.771256	-0.000739	5983.793945
6043.659945	1.715497	-0.000739	7505.439453
6043.661049	1.653563	-0.000739	9330.973633
6043.662012	1.600660	-0.000739	10872.410156
6043.662881	1.553027	-0.000739	12221.991211
6043.663905	1.499557	-0.000739	13757.537109
6043.664926	1.448203	-0.000739	15236.152344
6043.665813	1.404906	-0.000739	16482.304687
6043.666760	1.361367	-0.000739	17771.519531
6043.667829	1.312950	-0.000739	19175.062500
6043.668765	1.273378	-0.000739	20366.943359
6043.669629	0.958224	-0.000739	21194.849609
6043.670699	0.093871	-0.000739	21295.291016
6043.671710	0.090458	-0.000739	21386.744141
6043.672590	0.090531	-0.000739	21466.412109
6043.673549	0.090619	-0.000739	21553.316406
6043.674608	0.090571	-0.000739	21649.230469
6043.675521	0.090505	-0.000739	21731.861328
6043.676384	0.090582	-0.000739	21810.033203
6043.677435	0.090575	-0.000739	21905.226562
6043.678432	0.090524	-0.000739	21995.478516
6043.679323	0.090502	-0.000739	22076.115234
6044.715465	1.456597	0.003825	636.532715
6044.716332	1.886356	0.003825	2272.003418
6044.717424	1.832413	0.003825	4272.998535
6044.718417	1.768678	0.003825	6029.295898
6044.719316	1.714724	0.003825	7570.833008
6044.720299	1.657947	0.003825	9200.594727
6044.721370	1.598350	0.003825	10912.426758
6044.722271	1.550120	0.003825	12309.083984
6044.723138	1.502406	0.003825	13611.669922
6044.724251	1.448254	0.003825	15223.577148
6044.725216	1.401969	0.003825	16576.476562
6044.726084	1.361755	0.003825	17758.480469
6044.727124	1.314269	0.003825	19125.320312
6044.728157	1.271041	0.003825	20438.306641
6044.729060	0.855890	0.003825	21211.175781
6044.730002	0.095197	0.003825	21300.851562
6044.731050	0.090575	0.003825	21395.773437
6044.731986	0.090516	0.003825	21480.496094
6044.732848	0.090586	0.003825	21558.582031
6044.733891	0.090667	0.003825	21653.146484
6044.734908	0.090619	0.003825	21745.306641
6044.735783	0.090461	0.003825	21824.460937
6044.736743	0.090626	0.003825	21911.462891
6044.737794	0.090626	0.003825	22006.710937
6044.738711	0.090439	0.003825	22089.644531
6045.744668	1.532666	0.006419	795.453674
6045.745557	1.885712	0.006419	2471.851318
6045.746434	1.840411	0.006419	4085.892090
6045.747346	1.780290	0.006419	5709.517090
6045.748345	1.718917	0.006419	7426.715332
6045.749263	1.666209	0.006419	8956.294922
6045.750149	1.617290	0.006419	10389.213867
6045.751141	1.565354	0.006419	11942.044922
6045.752076	1.514070	0.006419	13357.700195
6045.753006	1.466422	0.006419	14721.472656
6045.753878	1.422144	0.006419	15961.582031
6045.754929	1.374272	0.006419	17405.941406
6045.755818	1.332777	0.006419	18590.781250
6045.756701	1.294530	0.006419	19733.851562
6045.757709	1.253024	0.006419	20996.900391
6045.758638	0.269674	0.006419	21247.427734
6045.759510	0.090403	0.006419	21326.259766
6045.760478	0.090685	0.006419	21414.042969
6045.761494	0.090524	0.006419	21506.015625
6045.762387	0.090557	0.006419	21586.882812
6045.763249	0.090542	0.006419	21664.929687
6045.764317	0.090630	0.006419	21761.722656
6045.765241	0.090461	0.006419	21845.308594
6045.766118	0.090553	0.006419	21924.722656
6045.767078	0.090549	0.006419	22011.650391
6046.809016	1.434727	0.002781	602.585144
6046.809989	1.884038	0.002781	2435.754150
6046.811050	1.829403	0.002781	4376.750977
6046.811968	1.770388	0.002781	6001.967285
6046.812836	1.715442	0.002781	7490.970703
6046.813927	1.654373	0.002781	9295.891602
6046.814915	1.598101	0.002781	10874.814453
6046.815810	1.551500	0.002781	12263.407227
6046.816822	1.499194	0.002781	13780.591797
6046.817870	1.446522	0.002781	15296.546875
6046.818752	1.403123	0.002781	16534.101562
6046.819638	1.360935	0.002781	17739.890625
6046.820729	1.312603	0.002781	19171.939453
6046.821681	1.272730	0.002781	20383.578125
6046.822543	0.954569	0.002781	21206.416016
6046.823569	0.095204	0.002781	21304.095703
6046.824612	0.090428	0.002781	21398.412109
6046.825484	0.090443	0.002781	21477.279297
6046.826408	0.090502	0.002781	21560.902344
6046.827471	0.090480	0.002781	21657.082031
6046.828420	0.090417	0.002781	21742.888672
6046.829283	0.090447	0.002781	21820.943359
6046.830314	0.090571	0.002781	21914.322266
6046.831335	0.090469	0.002781	22006.691406
6046.832226	0.090447	0.002781	22087.279297
6047.832518	1.444288	-0.000630	619.599670
6047.833380	1.887627	-0.000630	2246.734131
6047.834436	1.837848	-0.000630	4187.501465
6047.835308	1.779844	-0.000630	5739.525391
6047.836189	1.725762	-0.000630	7259.921387
6047.837074	1.672090	-0.000630	8739.720703
6047.838124	1.615188	-0.000630	10435.667969
6047.839022	1.566914	-0.000630	11842.756836
6047.839901	1.519794	-0.000630	13178.655273
6047.840904	1.468546	-0.000630	14651.607422
6047.841852	1.421385	-0.000630	15999.081055
6047.842742	1.379275	-0.000630	17226.634766
6047.843733	1.334601	-0.000630	18549.224609
6047.844739	1.290055	-0.000630	19847.019531
6047.845637	1.254108	-0.000630	20973.208984
6047.846503	0.338763	-0.000630	21266.578125
6047.847578	0.090516	-0.000630	21363.882812
6047.848483	0.090487	-0.000630	21445.773437
6047.849347	0.090505	-0.000630	21523.970703
6047.850330	0.090560	-0.000630	21612.992187
6047.851341	0.090461	-0.000630	21704.449219
6047.852232	0.090428	-0.000630	21785.021484
6047.853097	0.090542	-0.000630	21863.339844
6047.854178	0.090582	-0.000630	21961.259766
6047.855114	0.090549	-0.000630	22046.013672
6047.855973	0.090557	-0.000630	22123.802734
6048.902072	1.432042	0.003958	602.889771
6048.903039	1.883954	0.003958	2424.673340
6048.904103	1.829429	0.003958	4371.185547
6048.905028	1.770209	0.003958	6008.628906
6048.905902	1.715376	0.003958	7507.867187
6048.907003	1.652871	0.003958	9327.677734
6048.907999	1.596442	0.003958	10917.733398
6048.908897	1.549310	0.003958	12309.013672
6048.909906	1.496920	0.003958	13819.406250
6048.910960	1.444508	0.003958	15341.917969
6048.911848	1.400885	0.003958	16585.904297
6048.912719	1.359576	0.003958	17770.095703
6048.913812	1.311270	0.003958	19203.312500
6048.914770	1.271971	0.003958	20421.861328
6048.915634	0.912814	0.003958	21210.533203
6048.916686	0.093633	0.003958	21309.035156
6048.917708	0.090546	0.003958	21401.572266
6048.918590	0.090546	0.003958	21481.433594
6048.919454	0.090483	0.003958	21559.611328
6048.920370	0.090582	0.003958	21642.583984
6048.921354	0.090593	0.003958	21731.728516
6048.922281	0.090557	0.003958	21815.673828
6048.923158	0.090524	0.003958	21895.062500
6048.924136	0.090542	0.003958	21983.613281
6048.925073	0.090516	0.003958	22068.427734
6049.921015	1.506680	0.007386	715.672852
6049.921896	1.886558	0.007386	2377.730225
6049.922761	1.843037	0.007386	3971.957520
6049.923825	1.775405	0.007386	5860.988770
6049.924785	1.716713	0.007386	7509.032715
6049.925666	1.665480	0.007386	8976.320312
6049.926603	1.614423	0.007386	10489.034180
6049.927645	1.559520	0.007386	12114.054687
6049.928532	1.510767	0.007386	13454.104492
6049.929401	1.465741	0.007386	14727.833008
6049.930452	1.414618	0.007386	16214.596680
6049.931411	1.369991	0.007386	17528.417969
6049.932280	1.330239	0.007386	18684.396484
6049.933197	1.288883	0.007386	19866.302734
6049.934271	1.150085	0.007386	21101.494141
6049.935172	0.145693	0.007386	21232.763672
6049.936105	0.090524	0.007386	21317.222656
6049.937174	0.090549	0.007386	21414.019531
6049.938114	0.090553	0.007386	21499.138672
6049.938980	0.090531	0.007386	21577.539062
6049.940015	0.090656	0.007386	21671.367187
6049.941035	0.090505	0.007386	21763.683594
6049.941925	0.090531	0.007386	21844.255859
6049.942887	0.090579	0.007386	21931.392578
6049.943936	0.090685	0.007386	22026.521484
6050.995135	1.440784	0.001992	616.655396
6050.995999	1.887133	0.001992	2247.137939
6050.997057	1.835585	0.001992	4189.186523
6050.998009	1.774742	0.001992	5878.741211
6050.998888	1.720734	0.001992	7391.266113
6050.999827	1.666780	0.001992	8956.372070
6051.000873	1.609146	0.001992	10639.538086
6051.001758	1.560450	0.001992	12020.537109
6051.002627	1.513850	0.001992	13336.073242
6051.003688	1.459702	0.001992	14884.817383
6051.004631	1.412970	0.001992	16217.248047
6051.005507	1.372731	0.001992	17419.759766
6051.006432	1.329803	0.001992	18649.828125
6051.007517	1.284932	0.001992	20043.978516
6051.008397	1.208573	0.001992	21107.523437
6051.009330	0.188485	0.001992	21283.380859
6051.010390	0.090498	0.001992	21379.308594
6051.011331	0.090531	0.001992	21464.498047
6051.012197	0.090520	0.001992	21542.888672
6051.013224	0.090641	0.001992	21635.976562
6051.014249	0.090601	0.001992	21728.841797
6051.015141	0.090546	0.001992	21809.609375
6051.016089	0.090674	0.001992	21895.568359
6051.017138	0.090513	0.001992	21990.515625
6051.018073	0.090476	0.001992	22075.111328
6052.011468	1.464503	-0.002044	642.916870
6052.012330	1.885818	-0.002044	2268.491943
6052.013443	1.831677	-0.002044	4307.148437
6052.014420	1.769583	-0.002044	6036.030273
6052.015282	1.716654	-0.002044	7515.786133
6052.016374	1.654182	-0.002044	9322.153320
6052.017421	1.597181	-0.002044	10994.402344
6052.018310	1.548622	-0.002044	12371.126953
6052.019238	1.498835	-0.002044	13762.045898
6052.020315	1.444841	-0.002044	15318.139648
6052.021255	1.399358	-0.002044	16633.535156
6052.022126	1.359009	-0.002044	17817.232422
6052.023162	1.312123	-0.002044	19176.591797
6052.024189	1.269251	-0.002044	20480.111328
6052.025089	0.813951	-0.002044	21212.667969
6052.026057	0.093413	-0.002044	21303.091797
6052.027113	0.090546	-0.002044	21398.707031
6052.028037	0.090377	-0.002044	21482.214844
6052.028899	0.090428	-0.002044	21560.164062
6052.029975	0.090604	-0.002044	21657.654297
6052.030966	0.090538	-0.002044	21747.376953
6052.031858	0.090571	-0.002044	21828.166016
6052.032834	0.090590	-0.002044	21916.582031
6052.033885	0.090527	-0.002044	22011.726562
6052.034790	0.090564	-0.002044	22093.687500
6053.085624	1.450583	0.003136	613.596802
6053.086740	1.879856	0.003136	2711.516113
6053.087697	1.826448	0.003136	4459.426758
6053.088561	1.770985	0.003136	5989.557617
6053.089617	1.707869	0.003136	7793.066895
6053.090648	1.648729	0.003136	9492.907227
6053.091530	1.599192	0.003136	10903.394531
6053.092460	1.548336	0.003136	12343.347656
6053.093561	1.491639	0.003136	13985.642578
6053.094497	1.444526	0.003136	15337.718750
6053.095363	1.401907	0.003136	16551.769531
6053.096401	1.354098	0.003136	17957.322266
6053.097427	1.307743	0.003136	19299.066406
6053.098323	1.270946	0.003136	20437.833984
6053.099288	0.763821	0.003136	21174.921875
6053.100320	0.090970	0.003136	21268.802734
6053.101243	0.090417	0.003136	21352.257812
6053.102105	0.090421	0.003136	21430.201172
6053.103178	0.090568	0.003136	21527.380859
6053.104173	0.090480	0.003136	21617.408203
6053.105058	0.090502	0.003136	21697.501953
6053.106033	0.090590	0.003136	21785.826172
6053.107078	0.090546	0.003136	21880.447266
6053.107983	0.090480	0.003136	21962.332031
6053.108845	0.090553	0.003136	22040.388672
6054.103050	1.511459	0.000405	742.126221
6054.104047	1.881808	0.000405	2618.288574
6054.104938	1.832812	0.000405	4251.324219
6054.105909	1.771366	0.000405	5971.320312
6054.106977	1.706642	0.000405	7794.013672
6054.107894	1.653446	0.000405	9310.223633
6054.108760	1.603004	0.000405	10698.425781
6054.109863	1.545634	0.000405	12403.259766
6054.110832	1.495510	0.000405	13852.409180
6054.111718	1.450832	0.000405	15137.846680
6054.112732	1.402299	0.000405	16559.777344
6054.113787	1.354402	0.000405	17988.671875
6054.114681	1.312932	0.000405	19162.433594
6054.115575	1.274063	0.000405	20301.445312
6054.116667	0.732927	0.000405	21101.802734
6054.117614	0.091011	0.000405	21187.990234
6054.118473	0.090399	0.000405	21265.642578
6054.119512	0.090677	0.000405	21359.857422
6054.120533	0.090608	0.000405	21452.367187
6054.121419	0.090509	0.000405	21532.558594
6054.122339	0.090568	0.000405	21615.880859
6054.123414	0.090623	0.000405	21713.300781
6054.124353	0.090472	0.000405	21798.253906
6054.125211	0.090604	0.000405	21875.992187
6054.126225	0.090630	0.000405	21967.890625
6055.176734	1.533439	-0.001517	782.053711
6055.177663	1.884551	-0.001517	2532.801270
6055.178525	1.837548	-0.001517	4116.767578
6055.179586	1.770967	-0.001517	5995.763184
6055.180609	1.708788	-0.001517	7743.853027
6055.181482	1.657771	-0.001517	9191.086914
6055.182484	1.604315	-0.001517	10798.610352
6055.183546	1.546315	-0.001517	12440.796875
6055.184458	1.497217	-0.001517	13806.258789
6055.185319	1.451177	-0.001517	15055.721680
6055.186395	1.399742	-0.001517	16561.843750
6055.187388	1.354384	-0.001517	17906.746094
6055.188280	1.315796	-0.001517	19080.435547
6055.189259	1.273846	-0.001517	20327.531250
6055.190318	0.758247	-0.001517	21130.515625
6055.191213	0.091626	-0.001517	21212.521484
6055.192077	0.090399	-0.001517	21290.626953
6055.193176	0.090641	-0.001517	21390.242187
6055.194134	0.090542	-0.001517	21476.980469
6055.195001	0.090428	-0.001517	21555.382812
6055.196047	0.090674	-0.001517	21650.228516
6055.197080	0.090476	-0.001517	21743.689453
6055.197977	0.090579	-0.001517	21824.937500
6055.198898	0.090590	-0.001517	21908.371094
6055.199961	0.090615	-0.001517	22004.695312
6056.192455	1.457530	-0.001162	629.653198
6056.193483	1.882881	-0.001162	2565.254639
6056.194385	1.833523	-0.001162	4219.092285
6056.195320	1.774999	-0.001162	5878.716309
6056.196187	1.719481	-0.001162	7369.506836
6056.197230	1.661217	-0.001162	9102.156250
6056.198114	1.610076	-0.001162	10525.462891
6056.198984	1.562131	-0.001162	11884.517578
6056.200066	1.508141	-0.001162	13516.326172
6056.200984	1.459786	-0.001162	14856.410156
6056.201865	1.417449	-0.001162	16105.182617
6056.202847	1.370698	-0.001162	17451.208984
6056.203853	1.324878	-0.001162	18784.037109
6056.204752	1.286558	-0.001162	19940.652344
6056.205619	1.202479	-0.001162	20983.201172
6056.206709	0.149399	-0.001162	21146.046875
6056.207623	0.090322	-0.001162	21228.601562
6056.208496	0.090494	-0.001162	21307.603516
6056.209496	0.090688	-0.001162	21398.292969
6056.210501	0.090520	-0.001162	21489.265625
6056.211375	0.090542	-0.001162	21568.398437
6056.212357	0.090612	-0.001162	21657.378906
6056.213391	0.090659	-0.001162	21751.121094
6056.214297	0.090531	-0.001162	21833.142578
6056.215163	0.090538	-0.001162	21911.548828
6057.267658	1.471457	0.002826	643.026917
6057.268583	1.886224	0.002826	2387.784424
6057.269450	1.840492	0.002826	3983.490723
6057.270502	1.776002	0.002826	5851.844727
6057.271387	1.721451	0.002826	7375.329102
6057.272258	1.670727	0.002826	8830.533203
6057.273238	1.616265	0.002826	10414.472656
6057.274165	1.564596	0.002826	11864.853516
6057.275046	1.519475	0.002826	13203.510742
6057.276016	1.469106	0.002826	14628.543945
6057.277033	1.419016	0.002826	16071.683594
6057.277926	1.377162	0.002826	17301.488281
6057.278791	1.337772	0.002826	18458.660156
6057.279853	1.290824	0.002826	19829.515625
6057.280781	1.253152	0.002826	20992.441406
6057.281665	0.306244	0.002826	21263.160156
6057.282643	0.090385	0.002826	21351.556641
6057.283652	0.090520	0.002826	21442.890625
6057.284534	0.090476	0.002826	21522.691406
6057.285390	0.090516	0.002826	21600.173828
6057.286450	0.090579	0.002826	21696.187500
6057.287379	0.090520	0.002826	21780.281250
6057.288242	0.090454	0.002826	21858.343750
6057.289263	0.090560	0.002826	21950.806641
6057.290288	0.090494	0.002826	22043.562500
6058.283977	1.451583	-0.000949	632.890320
6058.284846	1.886843	-0.000949	2272.557129
6058.285891	1.835014	-0.000949	4190.146484
6058.286914	1.770143	-0.000949	6001.002930
6058.287812	1.715731	-0.000949	7541.729492
6058.288776	1.660895	-0.000949	9142.832031
6058.289839	1.600558	-0.000949	10844.224609
6058.290765	1.549684	-0.000949	12279.231445
6058.291632	1.502966	-0.000949	13582.302734
6058.292720	1.448295	-0.000949	15158.046875
6058.293721	1.399028	-0.000949	16558.474609
6058.294617	1.358496	-0.000949	17775.687500
6058.295622	1.315316	-0.000949	19097.580078
6058.296691	1.270518	-0.000949	20455.763672
6058.297588	0.831980	-0.000949	21202.048828
6058.298466	0.094087	-0.000949	21284.656250
6058.299567	0.090487	-0.000949	21384.283203
6058.300514	0.090421	-0.000949	21469.912109
6058.301371	0.090480	-0.000949	21547.453125
6058.302403	0.090549	-0.000949	21640.900391
6058.303436	0.090476	-0.000949	21734.361328
6058.304313	0.090450	-0.000949	21813.685547
6058.305223	0.090520	-0.000949	21896.058594
6058.306298	0.090524	-0.000949	21993.371094
6058.307231	0.090428	-0.000949	22077.740234
6059.357158	1.458527	0.004723	678.214844
6059.358053	1.886594	0.004723	2366.716797
6059.358922	1.843381	0.004723	3968.615234
6059.359960	1.778258	0.004723	5814.447266
6059.360868	1.721913	0.004723	7377.944336
6059.361746	1.670482	0.004723	8844.627930
6059.362663	1.619491	0.004723	10329.701172
6059.363666	1.564219	0.004723	11898.612305
6059.364560	1.516761	0.004723	13254.596680
6059.365419	1.470293	0.004723	14517.578125
6059.366515	1.419521	0.004723	16073.374023
6059.367395	1.376909	0.004723	17285.054687
6059.368276	1.337633	0.004723	18463.509766
6059.369281	1.292856	0.004723	19762.830078
6059.370282	1.246168	0.004723	21010.244141
6059.371180	0.250638	0.004723	21235.318359
6059.372041	0.090447	0.004723	21313.193359
6059.373141	0.090604	0.004723	21412.857422
6059.374048	0.090509	0.004723	21494.949219
6059.374909	0.090645	0.004723	21572.994141
6059.375994	0.090652	0.004723	21671.351562
6059.376975	0.090502	0.004723	21760.132812
6059.377868	0.090520	0.004723	21840.966797
6059.378852	0.090637	0.004723	21930.154297
6059.379892	0.090597	0.004723	22024.375000
6060.377033	1.450814	0.005412	631.104187
6060.377914	1.886971	0.005412	2293.526123
6060.378783	1.845450	0.005412	3897.222656
6060.379841	1.779371	0.005412	5779.797363
6060.380743	1.723121	0.005412	7334.052734
6060.381610	1.671603	0.005412	8783.332031
6060.382652	1.614104	0.005412	10465.228516
6060.383636	1.560308	0.005412	12000.571289
6060.384515	1.513590	0.005412	13331.016602
6060.385407	1.467008	0.005412	14639.587891
6060.386503	1.415643	0.005412	16191.132812
6060.387387	1.373643	0.005412	17405.433594
6060.388249	1.333312	0.005412	18554.748047
6060.389264	1.289106	0.005412	19863.191406
6060.390234	1.228048	0.005412	21054.398437
6060.391122	0.212849	0.005412	21243.408203
6060.391983	0.090454	0.005412	21321.289062
6060.393121	0.090582	0.005412	21424.371094
6060.394014	0.090494	0.005412	21505.181641
6060.394874	0.090579	0.005412	21583.080078
6060.395981	0.090597	0.005412	21683.371094
6060.396941	0.090469	0.005412	21770.220703
6060.397804	0.090472	0.005412	21848.298828
6060.398866	0.090692	0.005412	21944.613281
6060.399897	0.090623	0.005412	22038.044922
6061.446627	1.493174	0.004409	688.353149
6061.447507	1.886825	0.004409	2348.759277
6061.448503	1.837672	0.004409	4179.080566
6061.449564	1.769513	0.004409	6056.533691
6061.450480	1.713248	0.004409	7625.869141
6061.451343	1.661254	0.004409	9059.531250
6061.452440	1.602513	0.004409	10817.488281
6061.453444	1.547717	0.004409	12371.396484
6061.454322	1.501736	0.004409	13689.920898
6061.455326	1.450170	0.004409	15145.891602
6061.456407	1.399980	0.004409	16659.269531
6061.457288	1.358324	0.004409	17855.953125
6061.458165	1.319169	0.004409	19012.863281
6061.459040	1.279570	0.004409	20132.488281
6061.460098	0.959341	0.004409	21147.470703
6061.460998	0.098979	0.004409	21236.552734
6061.461875	0.090436	0.004409	21315.865234
6061.462872	0.090542	0.004409	21406.134766
6061.463792	0.090575	0.004409	21489.462891
6061.464704	0.090531	0.004409	21572.027344
6061.465566	0.090535	0.004409	21650.068359
6061.466623	0.090575	0.004409	21745.806641
6061.467504	0.090619	0.004409	21825.642578
6061.468368	0.090487	0.004409	21903.824219
6061.469330	0.090604	0.004409	21990.986328
6062.469655	1.516578	-0.002351	764.355530
6062.470538	1.886027	-0.002351	2429.717041
6062.471434	1.838580	-0.002351	4077.084961
6062.472518	1.770707	-0.002351	5996.531250
6062.473472	1.712915	-0.002351	7630.652344
6062.474335	1.662176	-0.002351	9065.110352
6062.475386	1.604949	-0.002351	10751.911133
6062.476409	1.549043	-0.002351	12336.582031
6062.477298	1.501509	-0.002351	13671.422852
6062.478257	1.453121	-0.002351	15064.965820
6062.479319	1.401427	-0.002351	16553.281250
6062.480250	1.357584	-0.002351	17817.191406
6062.481111	1.318517	-0.002351	18952.433594
6062.482168	1.274374	-0.002351	20299.447266
6062.483191	0.822045	-0.002351	21140.398437
6062.484079	0.093351	-0.002351	21223.294922
6062.485063	0.090538	-0.002351	21312.384766
6062.486106	0.090575	-0.002351	21406.853516
6062.487017	0.090487	-0.002351	21489.287109
6062.487881	0.090538	-0.002351	21567.511719
6062.488960	0.090681	-0.002351	21665.357422
6062.489942	0.090491	-0.002351	21754.218750
6062.490830	0.090546	-0.002351	21834.623047
6062.491810	0.090586	-0.002351	21923.396484
6062.492856	0.090601	-0.002351	22018.164062
6063.535030	1.448123	0.001690	608.211487
6063.536145	1.880969	0.001690	2705.491943
6063.537053	1.829670	0.001690	4366.832520
6063.537923	1.774189	0.001690	5910.377441
6063.538965	1.710802	0.001690	7693.033203
6063.539941	1.654958	0.001690	9308.272461
6063.540816	1.606681	0.001690	10714.118164
6063.541685	1.556331	0.001690	12066.569336
6063.542783	1.501113	0.001690	13714.791992
6063.543673	1.455154	0.001690	15009.878906
6063.544554	1.412706	0.001690	16254.472656
6063.545573	1.366282	0.001690	17646.712891
6063.546561	1.320773	0.001690	18951.636719
6063.547445	1.282460	0.001690	20085.332031
6063.548453	1.029562	0.001690	21123.130859
6063.549516	0.100664	0.001690	21230.136719
6063.550385	0.090447	0.001690	21308.734375
6063.551275	0.090571	0.001690	21389.343750
6063.552372	0.090696	0.001690	21488.837891
6063.553328	0.090505	0.001690	21575.361328
6063.554197	0.090568	0.001690	21654.064453
6063.555217	0.090718	0.001690	21746.595703
6063.556260	0.090553	0.001690	21841.042969
6063.557149	0.090557	0.001690	21921.546875
6063.558080	0.090612	0.001690	22005.906250
6064.562693	1.505793	0.005331	745.367737
6064.563586	1.885785	0.005331	2429.373779
6064.564453	1.838760	0.005331	4023.578613
6064.565559	1.771047	0.005331	5982.356934
6064.566527	1.712014	0.005331	7639.586426
6064.567396	1.661488	0.005331	9083.419922
6064.568462	1.602814	0.005331	10792.019531
6064.569497	1.546589	0.005331	12392.739258
6064.570384	1.499209	0.005331	13722.537109
6064.571311	1.452345	0.005331	15068.861328
6064.572366	1.401980	0.005331	16547.949219
6064.573312	1.358295	0.005331	17832.896484
6064.574175	1.318978	0.005331	18971.175781
6064.575230	1.274872	0.005331	20316.166016
6064.576265	0.805367	0.005331	21149.720703
6064.577130	0.093010	0.005331	21230.173828
6064.578088	0.090458	0.005331	21316.832031
6064.579135	0.090487	0.005331	21411.572266
6064.580063	0.090469	0.005331	21495.527344
6064.580927	0.090505	0.005331	21573.724609
6064.581984	0.090586	0.005331	21669.474609
6064.582990	0.090432	0.005331	21760.449219
6064.583882	0.090491	0.005331	21841.166016
6064.584842	0.090612	0.005331	21928.152344
6064.585891	0.090538	0.005331	22023.126953
6065.622570	1.547282	0.001948	806.133667
6065.623463	1.884855	0.001948	2489.308838
6065.624326	1.836991	0.001948	4074.631836
6065.625452	1.768440	0.001948	6065.895020
6065.626419	1.709912	0.001948	7719.379883
6065.627282	1.659719	0.001948	9151.717773
6065.628350	1.601056	0.001948	10861.645508
6065.629393	1.544436	0.001948	12472.492187
6065.630278	1.496847	0.001948	13797.201172
6065.631212	1.449236	0.001948	15150.787109
6065.632266	1.397794	0.001948	16624.062500
6065.633215	1.353845	0.001948	17908.861328
6065.634078	1.315580	0.001948	19044.207031
6065.635114	1.272510	0.001948	20362.527344
6065.636144	0.748942	0.001948	21133.937500
6065.637033	0.091736	0.001948	21215.490234
6065.637992	0.090494	0.001948	21302.273437
6065.639039	0.090557	0.001948	21397.085937
6065.639961	0.090432	0.001948	21480.464844
6065.640821	0.090498	0.001948	21558.292969
6065.641878	0.090575	0.001948	21654.031250
6065.642885	0.090494	0.001948	21745.158203
6065.643769	0.090461	0.001948	21825.126953
6065.644744	0.090593	0.001948	21913.455078
6065.645787	0.090586	0.001948	22007.935547
6066.657213	1.434507	0.009275	611.099915
6066.658256	1.882460	0.009275	2574.505371
6066.659293	1.826492	0.009275	4468.577148
6066.660184	1.768920	0.009275	6044.684570
6066.661123	1.712172	0.009275	7652.413574
6066.662185	1.651351	0.009275	9406.148437
6066.663123	1.597987	0.009275	10905.060547
6066.663986	1.550270	0.009275	12242.943359
6066.665030	1.495426	0.009275	13804.167969
6066.666055	1.443717	0.009275	15283.977539
6066.666952	1.400347	0.009275	16540.087891
6066.667921	1.355317	0.009275	17853.390625
6066.668985	1.308534	0.009275	19245.669922
6066.669907	1.270477	0.009275	20417.050781
6066.670780	0.863892	0.009275	21171.228516
6066.671881	0.091425	0.009275	21271.886719
6066.672869	0.090498	0.009275	21361.298828
6066.673766	0.090538	0.009275	21442.511719
6066.674744	0.090615	0.009275	21531.132812
6066.675798	0.090590	0.009275	21626.613281
6066.676704	0.090520	0.009275	21708.625000
6066.677562	0.090582	0.009275	21786.343750
6066.678644	0.090615	0.009275	21884.388672
6066.679619	0.090487	0.009275	21972.613281
6066.680481	0.090524	0.009275	22050.644531
6067.709891	1.456988	0.003619	630.875977
6067.710768	1.885547	0.003619	2284.500488
6067.711873	1.830758	0.003619	4307.488281
6067.712859	1.768872	0.003619	6051.596191
6067.713729	1.715530	0.003619	7544.106934
6067.714778	1.655076	0.003619	9280.281250
6067.715821	1.598353	0.003619	10947.363281
6067.716712	1.548776	0.003619	12327.322266
6067.717644	1.500135	0.003619	13725.448242
6067.718708	1.445592	0.003619	15263.558594
6067.719661	1.398907	0.003619	16596.716797
6067.720528	1.357284	0.003619	17773.482422
6067.721579	1.312372	0.003619	19152.785156
6067.722604	1.270811	0.003619	20455.365234
6067.723500	0.841677	0.003619	21209.507812
6067.724451	0.094556	0.003619	21299.429687
6067.725484	0.090615	0.003619	21393.035156
6067.726409	0.090553	0.003619	21476.796875
6067.727267	0.090619	0.003619	21554.548828
6067.728338	0.090623	0.003619	21651.605469
6067.729348	0.090542	0.003619	21743.052734
6067.730221	0.090491	0.003619	21822.050781
6067.731184	0.090630	0.003619	21909.328125
6067.732250	0.090560	0.003619	22005.865234
6067.733155	0.090549	0.003619	22087.812500
6068.750816	1.453630	-0.003559	671.577209
6068.751895	1.879622	-0.003559	2699.688965
6068.752854	1.825602	-0.003559	4450.441406
6068.753771	1.767433	-0.003559	6071.177246
6068.754651	1.713552	-0.003559	7579.103516
6068.755685	1.655101	-0.003559	9290.478516
6068.756589	1.603312	-0.003559	10739.872070
6068.757468	1.555855	-0.003559	12107.468750
6068.758351	1.507130	-0.003559	13438.264648
6068.759395	1.455926	-0.003559	14958.251953
6068.760282	1.412860	-0.003559	16211.458984
6068.761153	1.373075	-0.003559	17407.406250
6068.762167	1.328449	-0.003559	18754.453125
6068.763066	1.286386	-0.003559	19910.914062
6068.763988	1.233186	-0.003559	21047.912109
6068.764873	0.222656	-0.003559	21244.962891
6068.765906	0.090425	-0.003559	21338.371094
6068.766796	0.090516	-0.003559	21418.929687
6068.767655	0.090579	-0.003559	21496.736328
6068.768741	0.090571	-0.003559	21595.097656
6068.769672	0.090465	-0.003559	21679.320312
6068.770547	0.090560	-0.003559	21758.560547
6068.771506	0.090619	-0.003559	21845.464844
6068.772520	0.090564	-0.003559	21937.296875
6068.773401	0.090450	-0.003559	22016.984375
6069.798425	1.531809	0.004731	775.095337
6069.799377	1.883599	0.004731	2568.281250
6069.800242	1.836632	0.004731	4156.967773
6069.801298	1.770022	0.004731	6026.110840
6069.802329	1.707550	0.004731	7786.594727
6069.803213	1.655977	0.004731	9250.478516
6069.804154	1.603381	0.004731	10759.259766
6069.805217	1.545970	0.004731	12402.625977
6069.806156	1.496202	0.004731	13807.559570
6069.807017	1.451931	0.004731	15057.671875
6069.808082	1.401826	0.004731	16550.617187
6069.809105	1.355713	0.004731	17937.511719
6069.809985	1.316561	0.004731	19096.085937
6069.810955	1.274861	0.004731	20332.701172
6069.812004	0.749260	0.004731	21118.675781
6069.812929	0.091600	0.004731	21203.406250
6069.813800	0.090461	0.004731	21282.197266
6069.814870	0.090725	0.004731	21379.273437
6069.815853	0.090461	0.004731	21468.197266
6069.816743	0.090542	0.004731	21548.779297
6069.817722	0.090626	0.004731	21637.501953
6069.818768	0.090542	0.004731	21732.208984
6069.819674	0.090560	0.004731	21814.255859
6069.820588	0.090516	0.004731	21896.988281
6069.821450	0.090608	0.004731	21975.091797
6070.842817	1.445746	0.005750	621.670715
6070.843686	1.886755	0.005750	2261.261230
6070.844762	1.833552	0.005750	4234.163574
6070.845758	1.769978	0.005750	5997.061523
6070.846655	1.715409	0.005750	7535.783203
6070.847632	1.659364	0.005750	9156.982422
6070.848683	1.601733	0.005750	10840.404297
6070.849600	1.550695	0.005750	12262.391602
6070.850470	1.502574	0.005750	13569.630859
6070.851583	1.448144	0.005750	15181.416016
6070.852558	1.401698	0.005750	16548.072266
6070.853428	1.361686	0.005750	17732.738281
6070.854495	1.314159	0.005750	19134.945312
6070.855523	1.271810	0.005750	20442.367187
6070.856420	0.851766	0.005750	21206.402344
6070.857330	0.094922	0.005750	21292.781250
6070.858395	0.090527	0.005750	21389.193359
6070.859330	0.090538	0.005750	21473.847656
6070.860190	0.090542	0.005750	21551.712891
6070.861228	0.090710	0.005750	21645.871094
6070.862251	0.090524	0.005750	21738.476562
6070.863122	0.090549	0.005750	21817.345703
6070.864045	0.090612	0.005750	21900.980469
6070.865108	0.090571	0.005750	21997.257812
6070.866039	0.090502	0.005750	22081.515625
6071.889364	1.466100	0.003200	643.617859
6071.890231	1.886327	0.003200	2279.063232
6071.891308	1.833494	0.003200	4253.735840
6071.892316	1.768887	0.003200	6036.773437
6071.893197	1.715233	0.003200	7547.893555
6071.894184	1.658789	0.003200	9185.118164
6071.895245	1.599177	0.003200	10881.845703
6071.896144	1.550024	0.003200	12275.317383
6071.897005	1.503512	0.003200	13569.840820
6071.898106	1.449653	0.003200	15165.909180
6071.899091	1.402771	0.003200	16547.638672
6071.899951	1.362363	0.003200	17719.271484
6071.900970	1.316261	0.003200	19060.541016
6071.902030	1.271572	0.003200	20408.408203
6071.902928	0.881656	0.003200	21200.134766
6071.903840	0.095900	0.003200	21287.595703
6071.904921	0.090582	0.003200	21385.515625
6071.905878	0.090454	0.003200	21472.080078
6071.906742	0.090487	0.003200	21550.261719
6071.907761	0.090546	0.003200	21642.527344
6071.908786	0.090421	0.003200	21735.208984
6071.909677	0.090505	0.003200	21815.849609
6071.910594	0.090568	0.003200	21898.900391
6071.911663	0.090586	0.003200	21995.736328
6071.912606	0.090483	0.003200	22081.062500
6072.932800	1.435298	0.008167	611.436890
6072.933668	1.887239	0.008167	2249.560059
6072.934681	1.838243	0.008167	4111.700684
6072.935654	1.775815	0.008167	5839.569336
6072.936539	1.721678	0.008167	7363.254883
6072.937405	1.668841	0.008167	8808.471680
6072.938536	1.609453	0.008167	10628.762695
6072.939437	1.558817	0.008167	12033.256836
6072.940307	1.512297	0.008167	13348.955078
6072.941402	1.456025	0.008167	14943.302734
6072.942370	1.408502	0.008167	16306.732422
6072.943252	1.366989	0.008167	17512.416016
6072.944146	1.325197	0.008167	18697.142578
6072.945253	1.280940	0.008167	20115.142578
6072.946136	1.154619	0.008167	21134.671875
6072.947020	0.150729	0.008167	21267.916016
6072.948118	0.090531	0.008167	21367.318359
6072.949068	0.090542	0.008167	21453.333984
6072.949933	0.090564	0.008167	21531.671875
6072.950927	0.090608	0.008167	21621.736328
6072.951969	0.090531	0.008167	21716.070312
6072.952855	0.090487	0.008167	21796.242187
6072.953765	0.090590	0.008167	21878.679687
6072.954830	0.090623	0.008167	21975.193359
6072.955777	0.090586	0.008167	22060.978516
6073.982905	1.433635	0.006210	602.126831
6073.983866	1.883558	0.006210	2412.226562
6073.984929	1.829092	0.006210	4356.551270
6073.985853	1.770062	0.006210	5992.088867
6073.986726	1.715021	0.006210	7489.301758
6073.987800	1.654233	0.006210	9265.948242
6073.988795	1.599738	0.006210	10857.687500
6073.989683	1.552460	0.006210	12236.271484
6073.990674	1.499290	0.006210	13722.067383
6073.991736	1.446497	0.006210	15258.247070
6073.992648	1.401335	0.006210	16536.265625
6073.993560	1.360276	0.006210	17776.837891
6073.994451	1.321355	0.006210	18954.166016
6073.995407	1.279578	0.006210	20177.441406
6073.996348	1.043785	0.006210	21159.642578
6073.997246	0.111713	0.006210	21259.960937
6073.998192	0.090425	0.006210	21345.501953
6073.999120	0.090524	0.006210	21429.507812
6074.000040	0.090527	0.006210	21512.792969
6074.000920	0.090637	0.006210	21592.554687
6074.001947	0.090568	0.006210	21685.568359
6074.002833	0.090531	0.006210	21765.779297
6074.003705	0.090491	0.006210	21844.687500
6074.004652	0.090579	0.006210	21930.464844
6074.005630	0.090634	0.006210	22019.103516
6075.019705	1.433697	-0.000981	606.454041
6075.020715	1.882899	-0.000981	2508.182373
6075.021764	1.827151	-0.000981	4424.863770
6075.022665	1.769213	-0.000981	6018.924316
6075.023606	1.712439	-0.000981	7630.329102
6075.024684	1.650319	-0.000981	9409.372070
6075.025632	1.596760	-0.000981	10923.100586
6075.026506	1.548984	-0.000981	12276.913086
6075.027556	1.494478	-0.000981	13846.114258
6075.028578	1.443636	-0.000981	15321.510742
6075.029471	1.398885	-0.000981	16570.714844
6075.030439	1.355054	-0.000981	17882.406250
6075.031501	1.309274	-0.000981	19272.855469
6075.032426	1.270276	-0.000981	20447.861328
6075.033296	0.846943	-0.000981	21184.701172
6075.034385	0.091425	-0.000981	21284.261719
6075.035382	0.090428	-0.000981	21374.417969
6075.036258	0.090527	-0.000981	21453.720703
6075.037248	0.090568	-0.000981	21543.382812
6075.038294	0.090509	-0.000981	21638.054687
6075.039178	0.090513	-0.000981	21718.068359
6075.040033	0.090538	-0.000981	21795.478516
6075.041130	0.090630	-0.000981	21894.900391
6075.042098	0.090498	-0.000981	21982.501953
6075.042962	0.090571	-0.000981	22060.755859
6076.077577	1.508221	0.009311	757.127136
6076.078571	1.882083	0.009311	2627.917236
6076.079465	1.832666	0.009311	4266.320312
6076.080452	1.770194	0.009311	6013.501953
6076.081502	1.707100	0.009311	7805.956543
6076.082410	1.654032	0.009311	9307.817383
6076.083274	1.604264	0.009311	10693.901367
6076.084383	1.545315	0.009311	12407.655273
6076.085359	1.494049	0.009311	13865.847656
6076.086223	1.450166	0.009311	15118.791016
6076.087296	1.399039	0.009311	16619.960937
6076.088341	1.350040	0.009311	18030.753906
6076.089225	1.311493	0.009311	19190.113281
6076.090160	1.272385	0.009311	20379.792969
6076.091209	0.714119	0.009311	21128.904297
6076.092148	0.090868	0.009311	21214.228516
6076.093006	0.090410	0.009311	21291.800781
6076.094038	0.090648	0.009311	21385.349609
6076.095080	0.090513	0.009311	21479.664062
6076.095960	0.090509	0.009311	21559.312500
6076.096912	0.090557	0.009311	21645.521484
6076.097962	0.090531	0.009311	21740.578125
6076.098899	0.090425	0.009311	21825.306641
6076.099761	0.090513	0.009311	21903.328125
6076.100825	0.090645	0.009311	21999.773437
6077.105129	1.500560	0.003736	699.261108
6077.106011	1.886188	0.003736	2362.878662
6077.106870	1.842048	0.003736	3945.198242
6077.107965	1.775281	0.003736	5889.130859
6077.108869	1.718668	0.003736	7442.806641
6077.109749	1.667900	0.003736	8910.558594
6077.110726	1.613097	0.003736	10486.554687
6077.111743	1.556569	0.003736	12069.584961
6077.112637	1.509877	0.003736	13419.415039
6077.113608	1.460515	0.003736	14837.575195
6077.114678	1.408323	0.003736	16344.480469
6077.115591	1.365066	0.003736	17590.785156
6077.116457	1.324376	0.003736	18737.695312
6077.117559	1.279120	0.003736	20147.285156
6077.118551	1.009274	0.003736	21148.484375
6077.119447	0.103956	0.003736	21241.628906
6077.120437	0.090531	0.003736	21331.253906
6077.121489	0.090571	0.003736	21426.535156
6077.122374	0.090604	0.003736	21506.720703
6077.123244	0.090494	0.003736	21585.451172
6077.124337	0.090575	0.003736	21684.449219
6077.125288	0.090546	0.003736	21770.558594
6077.126148	0.090476	0.003736	21848.367187
6077.127194	0.090579	0.003736	21943.113281
6077.128223	0.090516	0.003736	22036.253906
6078.173122	1.443754	0.005106	615.039062
6078.173988	1.885444	0.005106	2247.833984
6078.175047	1.835735	0.005106	4191.876953
6078.175923	1.779027	0.005106	5750.304687
6078.176790	1.723674	0.005106	7244.730469
6078.177883	1.662671	0.005106	9062.029297
6078.178808	1.610013	0.005106	10551.291992
6078.179693	1.561406	0.005106	11933.136719
6078.180670	1.510448	0.005106	13408.844727
6078.181676	1.458369	0.005106	14875.963867
6078.182569	1.414977	0.005106	16139.538086
6078.183435	1.372353	0.005106	17327.996094
6078.184519	1.325482	0.005106	18764.818359
6078.185436	1.286169	0.005106	19944.236328
6078.186316	1.244583	0.005106	21039.468750
6078.187329	0.228362	0.005106	21270.798828
6078.188336	0.090337	0.005106	21361.767578
6078.189217	0.090527	0.005106	21441.521484
6078.190213	0.090626	0.005106	21531.785156
6078.191268	0.090557	0.005106	21627.322266
6078.192167	0.090520	0.005106	21708.699219
6078.193023	0.090498	0.005106	21786.166016
6078.194100	0.090652	0.005106	21883.798828
6078.195079	0.090564	0.005106	21972.460937
6078.195972	0.090469	0.005106	22053.250000
6079.194149	1.536878	-0.002822	793.028809
6079.195104	1.882859	-0.002822	2591.159180
6079.195973	1.835552	-0.002822	4186.253906
6079.197023	1.768975	-0.002822	6043.677246
6079.198062	1.706129	-0.002822	7816.345215
6079.198944	1.654570	-0.002822	9275.675781
6079.199882	1.601935	-0.002822	10778.291016
6079.200947	1.545948	-0.002822	12424.726562
6079.201884	1.496353	-0.002822	13826.808594
6079.202747	1.451338	-0.002822	15079.313477
6079.203810	1.401559	-0.002822	16569.169922
6079.204838	1.354688	-0.002822	17961.789062
6079.205712	1.315704	-0.002822	19111.714844
6079.206698	1.273788	-0.002822	20367.669922
6079.207758	0.707637	-0.002822	21117.765625
6079.208676	0.091132	-0.002822	21201.423828
6079.209540	0.090494	-0.002822	21279.611328
6079.210610	0.090634	-0.002822	21376.589844
6079.211599	0.090498	-0.002822	21466.091797
6079.212491	0.090476	-0.002822	21546.796875
6079.213461	0.090773	-0.002822	21634.845703
6079.214503	0.090586	-0.002822	21729.236328
6079.215414	0.090513	-0.002822	21811.693359
6079.216275	0.090535	-0.002822	21889.644531
6079.217364	0.090619	-0.002822	21988.328125
6080.265659	1.435701	0.005134	605.865662
6080.266625	1.883591	0.005134	2425.414795
6080.267674	1.829824	0.005134	4344.900391
6080.268594	1.770937	0.005134	5974.163086
6080.269465	1.715640	0.005134	7468.485352
6080.270573	1.653237	0.005134	9300.272461
6080.271564	1.598628	0.005134	10884.512695
6080.272456	1.550120	0.005134	12267.219727
6080.273440	1.498630	0.005134	13741.872070
6080.274506	1.446438	0.005134	15283.775391
6080.275403	1.401954	0.005134	16541.328125
6080.276295	1.359972	0.005134	17754.423828
6080.277381	1.312273	0.005134	19179.552734
6080.278334	1.272330	0.005134	20392.083984
6080.279204	0.930553	0.005134	21201.666016
6080.280246	0.093860	0.005134	21299.468750
6080.281283	0.090480	0.005134	21393.296875
6080.282166	0.090494	0.005134	21473.203125
6080.283110	0.090612	0.005134	21558.740234
6080.284170	0.090663	0.005134	21654.843750
6080.285096	0.090513	0.005134	21738.658203
6080.285955	0.090571	0.005134	21816.458984
6080.286993	0.090546	0.005134	21910.445312
6080.288018	0.090524	0.005134	22003.232422
6080.288904	0.090546	0.005134	22083.455078
6081.281986	1.444406	0.001210	616.761169
6081.282886	1.885089	0.001210	2313.341309
6081.283964	1.831553	0.001210	4287.754883
6081.284920	1.771091	0.001210	5980.917969
6081.285786	1.717950	0.001210	7468.663086
6081.286841	1.657130	0.001210	9216.935547
6081.287874	1.598741	0.001210	10868.435547
6081.288767	1.551211	0.001210	12253.666992
6081.289717	1.501205	0.001210	13679.811523
6081.290777	1.447657	0.001210	15214.328125
6081.291700	1.403108	0.001210	16509.396484
6081.292572	1.361067	0.001210	17696.246094
6081.293624	1.315459	0.001210	19080.109375
6081.294636	1.272341	0.001210	20367.718750
6081.295524	0.927411	0.001210	21191.259766
6081.296506	0.098167	0.001210	21287.660156
6081.297565	0.090626	0.001210	21383.632812
6081.298484	0.090483	0.001210	21466.787109
6081.299349	0.090590	0.001210	21545.146484
6081.300445	0.090542	0.001210	21644.380859
6081.301429	0.090480	0.001210	21733.412109
6081.302322	0.090417	0.001210	21814.154297
6081.303292	0.090564	0.001210	21902.001953
6081.304346	0.090498	0.001210	21997.386719
6081.305236	0.090520	0.001210	22077.949219
6082.357278	1.535486	0.006024	786.168762
6082.358210	1.883595	0.006024	2541.679199
6082.359078	1.836496	0.006024	4135.758301
6082.360151	1.768982	0.006024	6033.875977
6082.361174	1.706799	0.006024	7779.931641
6082.362063	1.655266	0.006024	9251.462891
6082.363052	1.600796	0.006024	10834.650391
6082.364108	1.544044	0.006024	12465.161133
6082.365019	1.495261	0.006024	13827.343750
6082.365880	1.450719	0.006024	15076.413086
6082.366969	1.400555	0.006024	16601.617187
6082.367964	1.354362	0.006024	17949.207031
6082.368839	1.316440	0.006024	19101.091797
6082.369827	1.273590	0.006024	20359.398437
6082.370898	0.705879	0.006024	21115.394531
6082.371794	0.091135	0.006024	21197.050781
6082.372663	0.090513	0.006024	21275.707031
6082.373763	0.090626	0.006024	21375.396484
6082.374733	0.090480	0.006024	21463.162109
6082.375600	0.090458	0.006024	21541.589844
6082.376655	0.090571	0.006024	21637.142578
6082.377690	0.090491	0.006024	21730.800781
6082.378578	0.090549	0.006024	21811.208984
6082.379503	0.090571	0.006024	21894.988281
6082.380584	0.090608	0.006024	21992.935547
6083.371455	1.443303	-0.003370	619.177063
6083.372320	1.886829	-0.003370	2251.283691
6083.373378	1.834834	-0.003370	4192.538086
6083.374388	1.770399	-0.003370	5980.641113
6083.375285	1.715797	-0.003370	7519.710937
6083.376257	1.660236	-0.003370	9133.459961
6083.377317	1.601202	-0.003370	10830.734375
6083.378248	1.549662	-0.003370	12273.469727
6083.379118	1.501893	-0.003370	13580.117187
6083.380222	1.447753	-0.003370	15178.436523
6083.381218	1.400350	-0.003370	16573.185547
6083.382117	1.358020	-0.003370	17794.044922
6083.383122	1.314056	-0.003370	19114.671875
6083.384162	1.271060	-0.003370	20436.574219
6083.385061	0.852715	-0.003370	21203.164062
6083.385933	0.094490	-0.003370	21285.558594
6083.386789	0.090535	-0.003370	21363.056641
6083.387852	0.090520	-0.003370	21459.279297
6083.388721	0.090549	-0.003370	21537.966797
6083.389595	0.090491	-0.003370	21617.056641
6083.390577	0.090579	-0.003370	21706.003906
6083.391496	0.090487	-0.003370	21789.162109
6083.392410	0.090363	-0.003370	21871.753906
6083.393279	0.090593	-0.003370	21950.478516
6083.394301	0.090579	-0.003370	22043.050781
6084.449251	1.460317	0.006439	680.507874
6084.450326	1.879805	0.006439	2701.297852
6084.451282	1.826462	0.006439	4447.395508
6084.452149	1.770300	0.006439	5982.246094
6084.453209	1.706649	0.006439	7791.293945
6084.454222	1.648594	0.006439	9461.319336
6084.455109	1.600155	0.006439	10880.657227
6084.456054	1.548541	0.006439	12344.028320
6084.457112	1.492632	0.006439	13923.232422
6084.458045	1.445262	0.006439	15271.662109
6084.458909	1.403214	0.006439	16484.039062
6084.459974	1.355343	0.006439	17927.478516
6084.461005	1.309252	0.006439	19277.316406
6084.461877	1.272678	0.006439	20387.091797
6084.462853	0.779535	0.006439	21147.917969
6084.463902	0.091073	0.006439	21243.453125
6084.464817	0.090483	0.006439	21326.246094
6084.465728	0.090491	0.006439	21408.683594
6084.466597	0.090524	0.006439	21487.349609
6084.467643	0.090579	0.006439	21582.095703
6084.468530	0.090553	0.006439	21662.416016
6084.469406	0.090549	0.006439	21741.736328
6084.470374	0.090670	0.006439	21829.505859
6084.471338	0.090502	0.006439	21916.750000
6084.472257	0.090480	0.006439	21999.900391
6085.464067	1.517113	0.011970	738.834045
6085.464947	1.886089	0.011970	2398.592285
6085.465878	1.838730	0.011970	4110.450195
6085.466947	1.770344	0.011970	6002.948242
6085.467894	1.712457	0.011970	7624.645508
6085.468824	1.659430	0.011970	9167.915039
6085.469690	1.610695	0.011970	10562.776367
6085.470746	1.554833	0.011970	12204.679687
6085.471631	1.505632	0.011970	13537.164062
6085.472504	1.460786	0.011970	14812.430664
6085.473430	1.415706	0.011970	16123.374023
6085.474428	1.368523	0.011970	17489.160156
6085.475346	1.327507	0.011970	18707.812500
6085.476226	1.290267	0.011970	19843.248047
6085.477273	1.199612	0.011970	21099.242187
6085.478182	0.169497	0.011970	21253.314453
6085.479051	0.090326	0.011970	21331.808594
6085.479914	0.090538	0.011970	21409.943359
6085.480972	0.090604	0.011970	21505.802734
6085.481851	0.090590	0.011970	21585.431641
6085.482707	0.090553	0.011970	21662.945312
6085.483764	0.090590	0.011970	21758.699219
6085.484680	0.090527	0.011970	21841.623047
6085.485552	0.090531	0.011970	21920.566406
6085.486525	0.090623	0.011970	22008.742187
6086.538682	1.435023	0.007374	604.144775
6086.539712	1.882694	0.007374	2543.319580
6086.540734	1.827250	0.007374	4410.768555
6086.541621	1.770597	0.007374	5981.288086
6086.542594	1.712406	0.007374	7647.458984
6086.543646	1.650872	0.007374	9384.175781
6086.544582	1.599774	0.007374	10881.564453
6086.545448	1.550501	0.007374	12224.297852
6086.546529	1.494727	0.007374	13840.097656
6086.547525	1.444797	0.007374	15279.116211
6086.548416	1.402610	0.007374	16528.841797
6086.549398	1.356313	0.007374	17860.742187
6086.550469	1.308874	0.007374	19262.546875
6086.551377	1.271305	0.007374	20416.892578
6086.552243	0.849943	0.007374	21152.943359
6086.553342	0.091791	0.007374	21253.822266
6086.554297	0.090520	0.007374	21340.269531
6086.555157	0.090546	0.007374	21418.138672
6086.556250	0.090670	0.007374	21517.240234
6086.557282	0.090491	0.007374	21610.626953
6086.558153	0.090513	0.007374	21689.462891
6086.559024	0.090568	0.007374	21768.347656
6086.559926	0.090564	0.007374	21850.037109
6086.560927	0.090542	0.007374	21940.669922
6086.561842	0.090491	0.007374	22023.468750
6087.555009	1.440960	0.005783	612.407837
6087.556018	1.882562	0.005783	2511.913086
6087.557070	1.827770	0.005783	4434.727051
6087.557967	1.769630	0.005783	6022.085449
6087.558842	1.716046	0.005783	7523.625977
6087.559702	1.663162	0.005783	8953.945312
6087.560769	1.606318	0.005783	10667.886719
6087.561658	1.557352	0.005783	12052.373047
6087.562528	1.511536	0.005783	13367.409180
6087.563518	1.461529	0.005783	14814.323242
6087.564452	1.414746	0.005783	16135.696289
6087.565379	1.371801	0.005783	17407.355469
6087.566255	1.330778	0.005783	18573.117187
6087.567303	1.286916	0.005783	19921.804687
6087.568198	1.243656	0.005783	21034.876953
6087.569078	0.244113	0.005783	21249.695312
6087.570055	0.090524	0.005783	21338.136719
6087.571005	0.090634	0.005783	21424.238281
6087.571881	0.090557	0.005783	21503.566406
6087.572814	0.090623	0.005783	21588.117187
6087.573871	0.090604	0.005783	21683.886719
6087.574749	0.090608	0.005783	21763.441406
6087.575606	0.090586	0.005783	21841.074219
6087.576617	0.090582	0.005783	21932.652344
6087.577574	0.090615	0.005783	22019.371094
6088.628182	1.477815	0.005315	650.238586
6088.629055	1.886591	0.005315	2297.232178
6088.630066	1.837529	0.005315	4154.974121
6088.631006	1.776196	0.005315	5824.598633
6088.631937	1.719855	0.005315	7425.783203
6088.632800	1.668274	0.005315	8865.503906
6088.633844	1.611002	0.005315	10547.390625
6088.634724	1.561567	0.005315	11921.570312
6088.635604	1.515633	0.005315	13255.328125
6088.636567	1.466426	0.005315	14667.496094
6088.637531	1.418903	0.005315	16035.318359
6088.638406	1.377990	0.005315	17241.058594
6088.639338	1.334956	0.005315	18485.238281
6088.640414	1.289795	0.005315	19873.058594
6088.641309	1.252866	0.005315	20994.373047
6088.642177	0.305947	0.005315	21259.935547
6088.643213	0.090472	0.005315	21353.664062
6088.644160	0.090472	0.005315	21439.341797
6088.645030	0.090593	0.005315	21518.158203
6088.645920	0.090571	0.005315	21598.767578
6088.647018	0.090637	0.005315	21698.287109
6088.647886	0.090524	0.005315	21776.861328
6088.648755	0.090531	0.005315	21855.533203
6088.649764	0.090652	0.005315	21947.000000
6088.650749	0.090505	0.005315	22036.148437
6089.646615	1.520013	0.000352	770.646790
6089.647538	1.884155	0.000352	2509.722168
6089.648407	1.837028	0.000352	4106.099121
6089.649453	1.770571	0.000352	5958.116699
6089.650479	1.708850	0.000352	7711.396973
6089.651367	1.657654	0.000352	9183.393555
6089.652341	1.602894	0.000352	10744.612305
6089.653402	1.545802	0.000352	12384.708008
6089.654327	1.496906	0.000352	13769.345703
6089.655196	1.451869	0.000352	15031.019531
6089.656293	1.400387	0.000352	16567.244141
6089.657290	1.352527	0.000352	17915.712891
6089.658193	1.312841	0.000352	19101.207031
6089.659180	1.272041	0.000352	20356.710937
6089.660240	0.721937	0.000352	21121.964844
6089.661124	0.091278	0.000352	21202.654297
6089.661982	0.090513	0.000352	21280.314453
6089.663095	0.090571	0.000352	21381.121094
6089.664044	0.090502	0.000352	21467.007812
6089.664902	0.090480	0.000352	21544.638672
6089.665923	0.090645	0.000352	21637.187500
6089.666960	0.090652	0.000352	21731.193359
6089.667841	0.090513	0.000352	21810.935547
6089.668742	0.090571	0.000352	21892.541016
6089.669833	0.090593	0.000352	21991.378906
6090.717142	1.484553	0.008228	657.657104
6090.718022	1.886294	0.008228	2317.595703
6090.719040	1.836068	0.008228	4186.712891
6090.720094	1.769180	0.008228	6051.428223
6090.720988	1.713354	0.008228	7583.166992
6090.721851	1.660393	0.008228	9016.085937
6090.722962	1.601060	0.008228	10794.863281
6090.723927	1.550127	0.008228	12290.735352
6090.724796	1.503959	0.008228	13597.675781
6090.725838	1.451041	0.008228	15109.661133
6090.726877	1.401632	0.008228	16565.957031
6090.727752	1.359163	0.008228	17755.224609
6090.728681	1.318228	0.008228	18979.857422
6090.729755	1.273586	0.008228	20347.689453
6090.730716	0.858347	0.008228	21172.560547
6090.731583	0.094720	0.008228	21254.683594
6090.732638	0.090546	0.008228	21350.208984
6090.733662	0.090571	0.008228	21442.953125
6090.734553	0.090645	0.008228	21523.716797
6090.735513	0.090626	0.008228	21610.718750
6090.736557	0.090615	0.008228	21705.320312
6090.737484	0.090623	0.008228	21789.328125
6090.738347	0.090601	0.008228	21867.515625
6090.739428	0.090626	0.008228	21965.482422
6090.740419	0.090480	0.008228	22055.148437
6091.740143	1.491936	-0.004989	708.669556
6091.741029	1.885975	-0.004989	2379.643555
6091.741979	1.838547	-0.004989	4126.263672
6091.743025	1.771238	-0.004989	5978.978516
6091.743962	1.713702	-0.004989	7584.717773
6091.744826	1.662568	-0.004989	9021.176758
6091.745891	1.605366	-0.004989	10730.891602
6091.746896	1.551398	-0.004989	12290.045898
6091.747784	1.502395	-0.004989	13624.172852
6091.748761	1.453978	-0.004989	15044.709961
6091.749805	1.403602	-0.004989	16510.070312
6091.750730	1.360913	-0.004989	17768.914062
6091.751592	1.319927	-0.004989	18906.691406
6091.752671	1.275355	-0.004989	20282.798828
6091.753686	0.864034	-0.004989	21159.792969
6091.754555	0.095248	-0.004989	21242.562500
6091.755536	0.090645	-0.004989	21331.484375
6091.756582	0.090615	-0.004989	21426.267578
6091.757491	0.090582	-0.004989	21508.607422
6091.758353	0.090597	-0.004989	21586.701172
6091.759450	0.090626	-0.004989	21686.117187
6091.760408	0.090483	-0.004989	21772.800781
6091.761289	0.090546	-0.004989	21852.572266
6091.762284	0.090597	-0.004989	21942.716797
6091.763344	0.090604	-0.004989	22038.757812
6092.807620	1.447925	0.001412	621.159790
6092.808485	1.885792	0.001412	2252.370117
6092.809535	1.834138	0.001412	4178.214844
6092.810488	1.773988	0.001412	5868.825195
6092.811359	1.720477	0.001412	7367.360840
6092.812409	1.660104	0.001412	9110.469727
6092.813433	1.604513	0.001412	10753.491211
6092.814327	1.557074	0.001412	12145.515625
6092.815284	1.505200	0.001412	13585.992187
6092.816353	1.449639	0.001412	15135.656250
6092.817290	1.404675	0.001412	16451.835937
6092.818156	1.363766	0.001412	17632.857422
6092.819235	1.316210	0.001412	19053.046875
6092.820231	1.274374	0.001412	20322.322266
6092.821126	0.968053	0.001412	21188.730469
6092.822132	0.100481	0.001412	21289.814453
6092.823169	0.090498	0.001412	21383.660156
6092.824064	0.090546	0.001412	21464.699219
6092.824919	0.090568	0.001412	21542.134766
6092.826007	0.090564	0.001412	21640.667969
6092.827002	0.090491	0.001412	21730.707031
6092.827875	0.090524	0.001412	21809.734375
6092.828883	0.090659	0.001412	21901.119141
6092.829925	0.090450	0.001412	21995.369141
6092.830796	0.090487	0.001412	22074.183594
6093.830608	1.459515	0.003329	639.267761
6093.831473	1.885305	0.003329	2270.056641
6093.832574	1.831934	0.003329	4287.015625
6093.833545	1.769491	0.003329	6005.191406
6093.834413	1.716310	0.003329	7494.948242
6093.835414	1.658785	0.003329	9155.392578
6093.836477	1.601144	0.003329	10857.408203
6093.837370	1.550951	0.003329	12242.407227
6093.838265	1.502179	0.003329	13586.857422
6093.839372	1.447654	0.003329	15189.410156
6093.840332	1.401409	0.003329	16534.761719
6093.841200	1.361550	0.003329	17716.587891
6093.842235	1.316352	0.003329	19079.011719
6093.843277	1.270847	0.003329	20403.234375
6093.844178	0.878705	0.003329	21194.947266
6093.845113	0.095911	0.003329	21284.623047
6093.846177	0.090560	0.003329	21380.978516
6093.847112	0.090498	0.003329	21465.593750
6093.847969	0.090553	0.003329	21543.197266
6093.849025	0.090634	0.003329	21638.906250
6093.850019	0.090421	0.003329	21728.785156
6093.850897	0.090476	0.003329	21808.222656
6093.851770	0.090428	0.003329	21887.166016
6093.852749	0.090582	0.003329	21975.845703
6093.853703	0.090410	0.003329	22062.097656
6094.899732	1.515044	0.012349	768.127319
6094.900615	1.885137	0.012349	2432.703125
6094.901514	1.836833	0.012349	4084.016602
6094.902624	1.767733	0.012349	6046.200195
6094.903571	1.710505	0.012349	7666.048828
6094.904441	1.660598	0.012349	9110.769531
6094.905468	1.604894	0.012349	10758.995117
6094.906497	1.550687	0.012349	12354.652344
6094.907392	1.501157	0.012349	13698.187500
6094.908349	1.452433	0.012349	15088.166016
6094.909418	1.400662	0.012349	16585.472656
6094.910352	1.358002	0.012349	17853.845703
6094.911222	1.317067	0.012349	18999.693359
6094.912289	1.273008	0.012349	20357.992187
6094.913303	0.782428	0.012349	21151.375000
6094.914194	0.092135	0.012349	21233.466797
6094.915175	0.090626	0.012349	21322.371094
6094.916228	0.090593	0.012349	21417.765625
6094.917140	0.090516	0.012349	21500.316406
6094.918002	0.090498	0.012349	21578.326172
6094.919092	0.090597	0.012349	21677.076172
6094.920076	0.090549	0.012349	21766.175781
6094.920951	0.090623	0.012349	21845.470703
6094.921957	0.090648	0.012349	21936.662109
6094.923002	0.090516	0.012349	22031.251953
6095.920587	1.451689	0.005468	619.871399
6095.921534	1.884001	0.005468	2404.020752
6095.922599	1.829436	0.005468	4352.370117
6095.923540	1.769143	0.005468	6017.133789
6095.924402	1.715614	0.005468	7495.993164
6095.925483	1.655021	0.005468	9285.070312
6095.926503	1.599192	0.005468	10916.246094
6095.927379	1.551310	0.005468	12275.193359
6095.928346	1.499381	0.005468	13725.094727
6095.929410	1.445306	0.005468	15262.900391
6095.930321	1.400713	0.005468	16538.949219
6095.931195	1.358935	0.005468	17726.658203
6095.932275	1.312046	0.005468	19143.667969
6095.933275	1.270503	0.005468	20414.171875
6095.934176	0.864899	0.005468	21193.445312
6095.935158	0.094299	0.005468	21286.046875
6095.936192	0.090439	0.005468	21379.560547
6095.937096	0.090524	0.005468	21461.394531
6095.937956	0.090579	0.005468	21539.292969
6095.939061	0.090696	0.005468	21639.511719
6095.940033	0.090432	0.005468	21727.412109
6095.940900	0.090469	0.005468	21805.847656
6095.941991	0.090652	0.005468	21904.748047
6095.943021	0.090579	0.005468	21998.044922
6095.943902	0.090498	0.005468	22077.773437
6096.991828	1.579753	0.002777	913.097473
6096.992886	1.876593	0.002777	2898.532959
6096.993776	1.823778	0.002777	4521.695312
6096.994693	1.765063	0.002777	6140.258301
6096.995763	1.701127	0.002777	7960.463867
6096.996727	1.646191	0.002777	9547.392578
6096.997594	1.596310	0.002777	10931.393555
6096.998643	1.540950	0.002777	12547.849609
6096.999679	1.486699	0.002777	14088.070312
6097.000549	1.443303	0.002777	15343.744141
6097.001513	1.397754	0.002777	16691.179687
6097.002571	1.347543	0.002777	18116.878906
6097.003493	1.306919	0.002777	19321.857422
6097.004364	1.270177	0.002777	20428.181641
6097.005444	0.640876	0.002777	21120.328125
6097.006451	0.090374	0.002777	21211.333984
6097.007341	0.090454	0.002777	21291.837891
6097.008312	0.090634	0.002777	21379.843750
6097.009375	0.090579	0.002777	21476.128906
6097.010287	0.090568	0.002777	21558.726562
6097.011151	0.090571	0.002777	21636.980469
6097.012245	0.090634	0.002777	21736.132812
6097.013226	0.090557	0.002777	21824.968750
6097.014117	0.090491	0.002777	21905.595703
6097.015111	0.090641	0.002777	21995.693359
6098.008506	1.445138	0.001754	609.848206
6098.009580	1.881445	0.001754	2630.520508
6098.010462	1.832915	0.001754	4247.151367
6098.011334	1.777159	0.001754	5796.834473
6098.012314	1.718324	0.001754	7480.791992
6098.013277	1.661158	0.001754	9080.487305
6098.014182	1.609219	0.001754	10536.830078
6098.015069	1.561399	0.001754	11921.791016
6098.016091	1.509470	0.001754	13464.469727
6098.016998	1.462961	0.001754	14791.375977
6098.017869	1.420005	0.001754	16028.200195
6098.018888	1.372756	0.001754	17427.039062
6098.019863	1.328430	0.001754	18722.257812
6098.020746	1.288993	0.001754	19860.437500
6098.021638	1.224137	0.001754	20952.367187
6098.022732	0.172383	0.001754	21140.953125
6098.023614	0.090311	0.001754	21220.607422
6098.024477	0.090597	0.001754	21298.792969
6098.025514	0.090674	0.001754	21392.822266
6098.026468	0.090593	0.001754	21479.248047
6098.027388	0.090535	0.001754	21562.539062
6098.028244	0.090579	0.001754	21640.074219
6098.029328	0.090527	0.001754	21738.205078
6098.030222	0.090502	0.001754	21819.113281
6098.031085	0.090513	0.001754	21897.226562
6099.083207	1.453279	0.002983	632.176270
6099.084084	1.886257	0.002983	2286.423828
6099.084950	1.845121	0.002983	3884.298340
6099.086003	1.778928	0.002983	5757.509766
6099.086907	1.722887	0.002983	7314.999512
6099.087785	1.671566	0.002983	8782.634766
6099.088710	1.618517	0.002983	10279.762695
6099.089732	1.563014	0.002983	11877.163086
6099.090648	1.515714	0.002983	13265.557617
6099.091514	1.470183	0.002983	14538.736328
6099.092548	1.421221	0.002983	16008.278320
6099.093451	1.376715	0.002983	17251.451172
6099.094376	1.334553	0.002983	18485.912109
6099.095243	1.295691	0.002983	19609.275391
6099.096270	1.255594	0.002983	20898.771484
6099.097173	0.359418	0.002983	21223.326172
6099.098035	0.090388	0.002983	21301.240234
6099.099120	0.090615	0.002983	21399.558594
6099.100033	0.090531	0.002983	21482.212891
6099.100908	0.090531	0.002983	21561.427734
6099.101882	0.090626	0.002983	21649.697266
6099.102888	0.090436	0.002983	21740.675781
6099.103772	0.090527	0.002983	21820.701172
6099.104631	0.090593	0.002983	21898.521484
6099.105710	0.090601	0.002983	21996.279297
6099.106624	0.090538	0.002983	22079.031250
6100.099120	1.542616	0.002677	836.097900
6100.100003	1.884053	0.002677	2499.716309
6100.100876	1.834812	0.002677	4101.506836
6100.101988	1.766587	0.002677	6065.951172
6100.102963	1.708272	0.002677	7731.515625
6100.103835	1.657808	0.002677	9177.124023
6100.104873	1.598789	0.002677	10836.666992
6100.105922	1.543890	0.002677	12456.208008
6100.106814	1.496074	0.002677	13790.706055
6100.107746	1.449690	0.002677	15141.817383
6100.108827	1.398021	0.002677	16653.078125
6100.109774	1.355189	0.002677	17936.441406
6100.110649	1.315085	0.002677	19087.140625
6100.111709	1.269730	0.002677	20433.054687
6100.112727	0.695706	0.002677	21141.283203
6100.113612	0.091161	0.002677	21221.960937
6100.114569	0.090458	0.002677	21308.529297
6100.115605	0.090586	0.002677	21402.376953
6100.116515	0.090549	0.002677	21484.777344
6100.117378	0.090575	0.002677	21562.943359
6100.118436	0.090608	0.002677	21658.806641
6100.119450	0.090516	0.002677	21750.589844
6100.120320	0.090516	0.002677	21829.339844
6100.121311	0.090535	0.002677	21919.060547
6100.122354	0.090564	0.002677	22013.519531
6101.175317	1.513257	0.013638	774.787476
6101.176262	1.882939	0.013638	2554.165039
6101.177134	1.835867	0.013638	4155.040527
6101.178168	1.769264	0.013638	5984.459473
6101.179213	1.706451	0.013638	7767.701172
6101.180105	1.655079	0.013638	9244.032227
6101.181061	1.602953	0.013638	10776.455078
6101.182122	1.544502	0.013638	12415.171875
6101.183057	1.495140	0.013638	13813.127930
6101.183932	1.450481	0.013638	15082.298828
6101.185009	1.399384	0.013638	16589.435547
6101.186021	1.353098	0.013638	17958.771484
6101.186916	1.312954	0.013638	19133.865234
6101.187883	1.271792	0.013638	20363.687500
6101.188944	0.704736	0.013638	21111.412109
6101.189858	0.091003	0.013638	21194.589844
6101.190719	0.090509	0.013638	21272.517578
6101.191819	0.090637	0.013638	21372.218750
6101.192801	0.090509	0.013638	21461.097656
6101.193682	0.090472	0.013638	21540.804687
6101.194676	0.090637	0.013638	21630.898437
6101.195727	0.090553	0.013638	21726.070312
6101.196607	0.090439	0.013638	21805.656250
6101.197466	0.090520	0.013638	21883.412109
6101.198551	0.090597	0.013638	21981.708984
6102.189070	1.515077	0.005617	760.568604
6102.189942	1.885587	0.005617	2404.800537
6102.190871	1.837357	0.005617	4111.705078
6102.191937	1.769348	0.005617	5997.830078
6102.192886	1.711765	0.005617	7622.294922
6102.193760	1.660664	0.005617	9073.714844
6102.194820	1.602543	0.005617	10772.410156
6102.195843	1.546567	0.005617	12354.548828
6102.196743	1.498865	0.005617	13703.527344
6102.197714	1.450221	0.005617	15111.691406
6102.198777	1.398571	0.005617	16598.371094
6102.199702	1.354076	0.005617	17850.890625
6102.200572	1.315382	0.005617	18995.273437
6102.201655	1.272239	0.005617	20373.107422
6102.202661	0.759294	0.005617	21136.957031
6102.203556	0.091941	0.005617	21219.244141
6102.204562	0.090465	0.005617	21310.251953
6102.205607	0.090447	0.005617	21404.769531
6102.206498	0.090483	0.005617	21485.390625
6102.207357	0.090483	0.005617	21563.115234
6102.208457	0.090524	0.005617	21662.691406
6102.209414	0.090450	0.005617	21749.251953
6102.210274	0.090502	0.005617	21827.083984
6102.211363	0.090546	0.005617	21925.687500
6102.212383	0.090524	0.005617	22018.021484
6103.266245	1.450005	0.005327	626.402161
6103.267160	1.885638	0.005327	2351.761475
6103.268036	1.841268	0.005327	3964.712402
6103.269080	1.775896	0.005327	5818.748047
6103.269978	1.720697	0.005327	7363.934082
6103.270860	1.668816	0.005327	8835.830078
6103.271828	1.615356	0.005327	10399.495117
6103.272783	1.562567	0.005327	11891.747070
6103.273701	1.515586	0.005327	13283.054687
6103.274573	1.469736	0.005327	14564.665039
6103.275616	1.419540	0.005327	16045.245117
6103.276503	1.375887	0.005327	17265.656250
6103.277375	1.336066	0.005327	18430.705078
6103.278307	1.296211	0.005327	19638.773437
6103.279309	1.255488	0.005327	20896.773437
6103.280207	0.366372	0.005327	21225.775391
6103.281102	0.090359	0.005327	21306.646484
6103.282198	0.090608	0.005327	21405.953125
6103.283091	0.090465	0.005327	21486.738281
6103.283952	0.090425	0.005327	21564.593750
6103.285031	0.090604	0.005327	21662.355469
6103.286004	0.090505	0.005327	21750.417969
6103.286877	0.090480	0.005327	21829.406250
6103.287765	0.090560	0.005327	21909.824219
6103.288859	0.090553	0.005327	22008.888672
6103.289737	0.090465	0.005327	22088.316406
6104.281169	1.565537	0.001436	864.176453
6104.282213	1.877856	0.001436	2824.658691
6104.283093	1.826583	0.001436	4432.051758
6104.284027	1.766422	0.001436	6081.890137
6104.285122	1.701303	0.001436	7944.816406
6104.286044	1.647426	0.001436	9463.743164
6104.286915	1.597698	0.001436	10855.337891
6104.287953	1.542565	0.001436	12456.520508
6104.288988	1.488571	0.001436	13997.191406
6104.289879	1.443820	0.001436	15283.634766
6104.290852	1.397051	0.001436	16642.964844
6104.291913	1.347195	0.001436	18072.337891
6104.292847	1.307245	0.001436	19293.304687
6104.293718	1.269547	0.001436	20399.080078
6104.294817	0.627825	0.001436	21089.058594
6104.295807	0.090333	0.001436	21178.488281
6104.296694	0.090560	0.001436	21258.814453
6104.297684	0.090619	0.001436	21348.527344
6104.298741	0.090491	0.001436	21444.175781
6104.299634	0.090498	0.001436	21524.990234
6104.300490	0.090516	0.001436	21602.472656
6104.301590	0.090582	0.001436	21702.113281
6104.302550	0.090450	0.001436	21788.945312
6104.303408	0.090546	0.001436	21866.632812
6104.304503	0.090590	0.001436	21965.828125
6105.356222	1.441659	0.008498	611.263428
6105.357117	1.883965	0.008498	2297.411865
6105.358229	1.829048	0.008498	4331.312988
6105.359187	1.767880	0.008498	6024.941406
6105.360109	1.712197	0.008498	7603.587402
6105.360989	1.660624	0.008498	9064.936523
6105.362012	1.603989	0.008498	10705.817383
6105.362918	1.554683	0.008498	12114.359375
6105.363798	1.509133	0.008498	13442.396484
6105.364707	1.461987	0.008498	14771.342773
6105.365731	1.412326	0.008498	16217.564453
6105.366611	1.370087	0.008498	17423.240234
6105.367487	1.331078	0.008498	18589.263672
6105.368502	1.289022	0.008498	19897.621094
6105.369410	1.236625	0.008498	21020.476562
6105.370320	0.223191	0.008498	21223.580078
6105.371194	0.090406	0.008498	21302.595703
6105.372230	0.090491	0.008498	21396.343750
6105.373131	0.090469	0.008498	21477.855469
6105.373997	0.090505	0.008498	21556.232422
6105.375080	0.090564	0.008498	21654.312500
6105.376006	0.090458	0.008498	21738.076172
6105.376878	0.090487	0.008498	21816.980469
6105.377842	0.090630	0.008498	21904.347656
6105.378854	0.090542	0.008498	21995.976562
6106.371601	1.509873	0.005194	767.015503
6106.372532	1.883709	0.005194	2520.748047
6106.373399	1.836819	0.005194	4113.270020
6106.374460	1.770146	0.005194	5991.395508
6106.375475	1.708550	0.005194	7725.573730
6106.376362	1.656940	0.005194	9195.279297
6106.377346	1.601982	0.005194	10771.629883
6106.378397	1.546091	0.005194	12396.572266
6106.379300	1.498378	0.005194	13749.607422
6106.380163	1.453293	0.005194	15003.799805
6106.381259	1.402665	0.005194	16541.121094
6106.382250	1.356500	0.005194	17885.412109
6106.383124	1.317865	0.005194	19037.226562
6106.384110	1.274586	0.005194	20293.968750
6106.385187	0.762876	0.005194	21115.585937
6106.386083	0.091853	0.005194	21197.886719
6106.386943	0.090491	0.005194	21275.708984
6106.388063	0.090677	0.005194	21377.267578
6106.389021	0.090571	0.005194	21464.035156
6106.389892	0.090509	0.005194	21542.869141
6106.390903	0.090729	0.005194	21634.595703
6106.391946	0.090546	0.005194	21729.035156
6106.392833	0.090553	0.005194	21809.355469
6106.393739	0.090579	0.005194	21891.419922
6106.394830	0.090612	0.005194	21990.277344
6107.445724	1.474215	0.003442	654.551514
6107.446603	1.885796	0.003442	2312.166016
6107.447466	1.844081	0.003442	3903.607910
6107.448522	1.778419	0.003442	5781.618652
6107.449407	1.723081	0.003442	7306.545410
6107.450276	1.672291	0.003442	8759.766602
6107.451199	1.619692	0.003442	10254.742187
6107.452187	1.564259	0.003442	11800.230469
6107.453113	1.517051	0.003442	13205.019531
6107.453982	1.470117	0.003442	14482.550781
6107.455085	1.418734	0.003442	16047.414062
6107.455988	1.376030	0.003442	17289.968750
6107.456859	1.336615	0.003442	18454.160156
6107.457916	1.289879	0.003442	19817.562500
6107.458892	1.243162	0.003442	21030.888672
6107.459777	0.236986	0.003442	21240.621094
6107.460633	0.090494	0.003442	21318.083984
6107.461740	0.090553	0.003442	21418.326172
6107.462626	0.090476	0.003442	21498.488281
6107.463485	0.090586	0.003442	21576.300781
6107.464574	0.090608	0.003442	21674.972656
6107.465553	0.090520	0.003442	21763.591797
6107.466408	0.090458	0.003442	21840.933594
6107.467477	0.090743	0.003442	21937.937500
6107.468523	0.090590	0.003442	22032.693359
6108.465152	1.508569	0.005319	740.707520
6108.466026	1.885741	0.005319	2388.845215
6108.466980	1.837203	0.005319	4141.537109
6108.468043	1.768912	0.005319	6021.890625
6108.468977	1.712161	0.005319	7621.048828
6108.469848	1.660884	0.005319	9067.678711
6108.470901	1.602704	0.005319	10755.326172
6108.471917	1.547303	0.005319	12327.386719
6108.472813	1.500161	0.005319	13671.531250
6108.473777	1.452484	0.005319	15071.725586
6108.474831	1.401237	0.005319	16548.628906
6108.475755	1.356921	0.005319	17802.423828
6108.476624	1.318074	0.005319	18947.830078
6108.477724	1.272466	0.005319	20347.542969
6108.478723	0.801562	0.005319	21148.304687
6108.479616	0.092604	0.005319	21231.000000
6108.480613	0.090579	0.005319	21321.306641
6108.481656	0.090549	0.005319	21415.750000
6108.482547	0.090553	0.005319	21496.433594
6108.483404	0.090538	0.005319	21574.025391
6108.484503	0.090608	0.005319	21673.603516
6108.485469	0.090476	0.005319	21761.003906
6108.486330	0.090531	0.005319	21838.951172
6108.487383	0.090586	0.005319	21934.337891
6108.488414	0.090505	0.005319	22027.648437
6109.532614	1.447050	0.004421	626.572510
6109.533479	1.886078	0.004421	2258.029785
6109.534552	1.833790	0.004421	4225.686523
6109.535493	1.773549	0.004421	5894.595703
6109.536369	1.719789	0.004421	7401.130859
6109.537326	1.664062	0.004421	8993.638672
6109.538376	1.604857	0.004421	10678.738281
6109.539267	1.556719	0.004421	12065.774414
6109.540132	1.510195	0.004421	13372.093750
6109.541172	1.456901	0.004421	14887.270508
6109.542137	1.410674	0.004421	16248.570312
6109.543022	1.370651	0.004421	17461.595703
6109.543970	1.328221	0.004421	18720.750000
6109.545016	1.282017	0.004421	20061.740234
6109.545913	1.177354	0.004421	21117.826172
6109.546855	0.161466	0.004421	21269.927734
6109.547911	0.090491	0.004421	21365.486328
6109.548851	0.090458	0.004421	21450.517578
6109.549711	0.090491	0.004421	21528.339844
6109.550759	0.090630	0.004421	21623.320312
6109.551766	0.090502	0.004421	21714.455078
6109.552647	0.090535	0.004421	21794.216797
6109.553619	0.090626	0.004421	21882.304687
6109.554655	0.090538	0.004421	21976.101562
6109.555581	0.090494	0.004421	22059.898437
6110.558216	1.513125	0.009396	756.562561
6110.559100	1.885166	0.009396	2423.049316
6110.560009	1.836947	0.009396	4092.834229
6110.561109	1.768099	0.009396	6037.743652
6110.562050	1.710758	0.009396	7647.566895
6110.562926	1.659961	0.009396	9101.692383
6110.563951	1.602037	0.009396	10743.781250
6110.564983	1.546622	0.009396	12339.895508
6110.565876	1.499670	0.009396	13679.101562
6110.566837	1.451539	0.009396	15074.031250
6110.567896	1.399621	0.009396	16556.230469
6110.568828	1.356112	0.009396	17820.126953
6110.569693	1.318008	0.009396	18960.203125
6110.570768	1.272938	0.009396	20328.611328
6110.571772	0.815457	0.009396	21147.330078
6110.572658	0.092919	0.009396	21229.656250
6110.573639	0.090520	0.009396	21318.457031
6110.574665	0.090575	0.009396	21411.386719
6110.575566	0.090491	0.009396	21492.917969
6110.576430	0.090608	0.009396	21571.203125
6110.577500	0.090641	0.009396	21668.189453
6110.578501	0.090509	0.009396	21758.789062
6110.579381	0.090461	0.009396	21838.394531
6110.580391	0.090685	0.009396	21929.986328
6110.581436	0.090597	0.009396	22024.660156
6111.620540	1.442344	0.005074	608.669067
6111.621604	1.881456	0.005074	2610.538574
6111.622499	1.832369	0.005074	4250.509277
6111.623379	1.776302	0.005074	5813.655273
6111.624381	1.716691	0.005074	7533.779297
6111.625318	1.660723	0.005074	9089.875977
6111.626193	1.611566	0.005074	10499.996094
6111.627152	1.559418	0.005074	11995.477539
6111.628179	1.505123	0.005074	13541.239258
6111.629075	1.459263	0.005074	14848.738281
6111.629946	1.416574	0.005074	16082.574219
6111.630979	1.368120	0.005074	17495.841797
6111.631933	1.325156	0.005074	18760.041016
6111.632808	1.288293	0.005074	19887.296875
6111.633736	1.205933	0.005074	21006.402344
6111.634794	0.148663	0.005074	21163.687500
6111.635688	0.090330	0.005074	21244.441406
6111.636550	0.090582	0.005074	21322.523437
6111.637597	0.090604	0.005074	21417.386719
6111.638547	0.090465	0.005074	21503.328125
6111.639406	0.090494	0.005074	21581.062500
6111.640446	0.090667	0.005074	21675.355469
6111.641475	0.090531	0.005074	21768.511719
6111.642353	0.090469	0.005074	21847.943359
6111.643286	0.090604	0.005074	21932.476562
6112.654819	1.491519	0.007068	680.132507
6112.655703	1.885613	0.007068	2347.014160
6112.656674	1.837302	0.007068	4131.034668
6112.657739	1.768810	0.007068	6014.817383
6112.658669	1.711948	0.007068	7606.929199
6112.659538	1.660415	0.007068	9049.830078
6112.660624	1.600909	0.007068	10788.417969
6112.661620	1.546761	0.007068	12328.992187
6112.662510	1.500143	0.007068	13664.119141
6112.663527	1.448957	0.007068	15137.708984
6112.664581	1.398548	0.007068	16611.779297
6112.665465	1.355834	0.007068	17810.335937
6112.666336	1.315679	0.007068	18956.292969
6112.667450	1.271228	0.007068	20372.441406
6112.668405	0.833361	0.007068	21168.300781
6112.669262	0.094211	0.007068	21249.039062
6112.670308	0.090593	0.007068	21343.798828
6112.671340	0.090575	0.007068	21437.271484
6112.672222	0.090520	0.007068	21517.109375
6112.673136	0.090601	0.007068	21599.917969
6112.674190	0.090568	0.007068	21695.376953
6112.675137	0.090538	0.007068	21781.117187
6112.676002	0.090579	0.007068	21859.466797
6112.677021	0.090659	0.007068	21951.847656
6112.678056	0.090535	0.007068	22045.550781
6113.708494	1.456183	0.007289	642.176636
6113.709368	1.886078	0.007289	2290.608643
6113.710352	1.838943	0.007289	4100.128418
6113.711371	1.772926	0.007289	5906.740234
6113.712254	1.718756	0.007289	7424.401855
6113.713233	1.663308	0.007289	9052.780273
6113.714296	1.603066	0.007289	10756.839844
6113.715213	1.552907	0.007289	12180.855469
6113.716075	1.505863	0.007289	13478.909180
6113.717143	1.452316	0.007289	15029.982422
6113.718157	1.402749	0.007289	16452.369141
6113.719055	1.360540	0.007289	17674.132812
6113.720038	1.318334	0.007289	18970.054687
6113.721095	1.273550	0.007289	20316.197266
6113.722003	0.948768	0.007289	21177.679687
6113.722872	0.099902	0.007289	21264.494141
6113.723992	0.090538	0.007289	21365.896484
6113.724949	0.090560	0.007289	21452.562500
6113.725814	0.090524	0.007289	21530.865234
6113.726872	0.090623	0.007289	21626.744141
6113.727912	0.090432	0.007289	21720.792969
6113.728801	0.090421	0.007289	21801.177734
6113.729733	0.090564	0.007289	21885.583984
6113.730794	0.090571	0.007289	21981.679687
6113.731740	0.090472	0.007289	22067.265625
6114.747421	1.525020	0.008240	771.659851
6114.748352	1.883427	0.008240	2525.129883
6114.749224	1.835955	0.008240	4126.082520
6114.750299	1.768403	0.008240	6027.116211
6114.751298	1.707686	0.008240	7733.094238
6114.752182	1.656870	0.008240	9197.767578
6114.753164	1.601949	0.008240	10770.881836
6114.754228	1.544700	0.008240	12414.442383
6114.755135	1.496796	0.008240	13772.036133
6114.756001	1.451583	0.008240	15029.107422
6114.757088	1.401138	0.008240	16552.144531
6114.758080	1.355178	0.008240	17896.480469
6114.758958	1.316327	0.008240	19052.214844
6114.759961	1.273722	0.008240	20329.757812
6114.761016	0.743635	0.008240	21114.292969
6114.761912	0.091553	0.008240	21196.324219
6114.762775	0.090476	0.008240	21274.404297
6114.763881	0.090641	0.008240	21374.652344
6114.764843	0.090469	0.008240	21461.683594
6114.765714	0.090535	0.008240	21540.539062
6114.766742	0.090619	0.008240	21633.695312
6114.767766	0.090432	0.008240	21726.296875
6114.768657	0.090439	0.008240	21806.878906
6114.769535	0.090637	0.008240	21886.458984
6114.770626	0.090659	0.008240	21985.367187
6115.797017	1.517966	0.006544	763.537109
6115.798013	1.881134	0.006544	2637.146484
6115.798893	1.832109	0.006544	4249.402832
6115.799891	1.768506	0.006544	6014.371582
6115.800957	1.704833	0.006544	7831.723633
6115.801856	1.652322	0.006544	9317.161133
6115.802748	1.601060	0.006544	10745.306641
6115.803850	1.542946	0.006544	12445.632812
6115.804813	1.493445	0.006544	13883.820312
6115.805685	1.449540	0.006544	15147.819336
6115.806726	1.399515	0.006544	16604.714844
6115.807761	1.352069	0.006544	18004.105469
6115.808654	1.311742	0.006544	19175.490234
6115.809619	1.272026	0.006544	20402.996094
6115.810683	0.664259	0.006544	21109.767578
6115.811615	0.090579	0.006544	21194.187500
6115.812474	0.090538	0.006544	21271.958984
6115.813541	0.090667	0.006544	21368.699219
6115.814527	0.090516	0.006544	21457.949219
6115.815411	0.090535	0.006544	21537.982422
6115.816391	0.090590	0.006544	21626.759766
6115.817426	0.090615	0.006544	21720.546875
6115.818334	0.090502	0.006544	21802.722656
6115.819191	0.090608	0.006544	21880.373047
6115.820275	0.090659	0.006544	21978.648437
