time (s)	coil I (A)	last det (V)	int current (uC)
6339.190232	1.485754	0.357048	643.331665
6339.191336	1.880896	0.357048	2719.840820
6339.192333	1.824408	0.357048	4538.775391
6339.193222	1.768022	0.357048	6110.547363
6339.194230	1.707755	0.357048	7831.964355
6339.195286	1.648414	0.357048	9572.689453
6339.196169	1.598536	0.357048	10984.197266
6339.197060	1.547853	0.357048	12363.333984
6339.198153	1.491742	0.357048	13993.807617
6339.199113	1.443801	0.357048	15379.856445
6339.199976	1.402053	0.357048	16589.828125
6339.201014	1.354570	0.357048	17995.871094
6339.202059	1.308369	0.357048	19363.117187
6339.202940	1.271341	0.357048	20483.167969
6339.203894	0.742079	0.357048	21191.111328
6339.204960	0.090857	0.357048	21287.964844
6339.205883	0.090634	0.357048	21371.619141
6339.206750	0.090568	0.357048	21450.140625
6339.207798	0.090637	0.357048	21545.128906
6339.208810	0.090535	0.357048	21636.750000
6339.209697	0.090505	0.357048	21717.027344
6339.210650	0.090641	0.357048	21803.408203
6339.211707	0.090623	0.357048	21899.195312
6339.212638	0.090575	0.357048	21983.521484
6339.213499	0.090590	0.357048	22061.519531
6340.234263	1.478551	0.392981	757.018127
6340.235302	1.881112	0.392981	2711.493408
6340.236196	1.830721	0.392981	4348.158203
6340.237061	1.774482	0.392981	5883.085449
6340.238123	1.711069	0.392981	7700.241211
6340.239068	1.656672	0.392981	9265.796875
6340.239947	1.608593	0.392981	10679.750000
6340.240889	1.556327	0.392981	12145.809570
6340.241948	1.500809	0.392981	13735.166992
6340.242833	1.455081	0.392981	15022.913086
6340.243756	1.409707	0.392981	16324.072266
6340.244841	1.359734	0.392981	17799.382812
6340.245775	1.317781	0.392981	19030.189453
6340.246648	1.280383	0.392981	20147.964844
6340.247705	0.900384	0.392981	21099.671875
6340.248736	0.092838	0.392981	21195.388672
6340.249623	0.090520	0.392981	21275.679687
6340.250586	0.090634	0.392981	21362.958984
6340.251634	0.090630	0.392981	21457.939453
6340.252555	0.090476	0.392981	21541.267578
6340.253414	0.090575	0.392981	21619.072266
6340.254491	0.090656	0.392981	21716.708984
6340.255482	0.090516	0.392981	21806.410156
6340.256370	0.090469	0.392981	21886.746094
6340.257344	0.090612	0.392981	21975.001953
6341.280186	1.433397	0.370877	600.593445
6341.281076	1.885342	0.370877	2278.547607
6341.282133	1.835354	0.370877	4218.516602
6341.283025	1.778276	0.370877	5804.739258
6341.283900	1.724597	0.370877	7313.761719
6341.284920	1.667391	0.370877	9014.500977
6341.285839	1.614741	0.370877	10498.448242
6341.286761	1.564277	0.370877	11940.711914
6341.287624	1.516132	0.370877	13249.133789
6341.288660	1.463730	0.370877	14765.558594
6341.289561	1.419913	0.370877	16044.900391
6341.290439	1.378898	0.370877	17255.572266
6341.291416	1.335447	0.370877	18560.304687
6341.292378	1.293025	0.370877	19804.195312
6341.293262	1.257037	0.370877	20915.416016
6341.294217	0.387155	0.370877	21285.148437
6341.295229	0.090469	0.370877	21376.703125
6341.296113	0.090461	0.370877	21456.671875
6341.296974	0.090608	0.370877	21534.685547
6341.298022	0.090707	0.370877	21629.746094
6341.298956	0.090520	0.370877	21714.291016
6341.299831	0.090604	0.370877	21793.570312
6341.300753	0.090593	0.370877	21877.097656
6341.301831	0.090590	0.370877	21974.753906
6341.302701	0.090505	0.370877	22053.494141
6341.303630	0.090652	0.370877	22137.708984
6342.325221	1.496045	0.374342	685.188599
6342.326110	1.886997	0.374342	2362.729004
6342.327085	1.838375	0.374342	4155.144531
6342.328149	1.770520	0.374342	6038.977539
6342.329064	1.714255	0.374342	7607.520996
6342.329931	1.662367	0.374342	9048.792969
6342.331036	1.603444	0.374342	10820.597656
6342.332005	1.549871	0.374342	12322.421875
6342.332888	1.503549	0.374342	13650.055664
6342.333920	1.451492	0.374342	15147.995117
6342.334977	1.401031	0.374342	16628.884766
6342.335856	1.359305	0.374342	17823.714844
6342.336729	1.318645	0.374342	18974.892578
6342.337829	1.274026	0.374342	20376.320312
6342.338786	0.862328	0.374342	21201.568359
6342.339646	0.095435	0.374342	21283.642578
6342.340681	0.090626	0.374342	21377.441406
6342.341721	0.090546	0.374342	21471.609375
6342.342593	0.090531	0.374342	21550.552734
6342.343502	0.090626	0.374342	21632.931641
6342.344581	0.090608	0.374342	21730.697266
6342.345518	0.090608	0.374342	21815.597656
6342.346429	0.090597	0.374342	21898.130859
6342.347307	0.090513	0.374342	21977.601562
6342.348341	0.090645	0.374342	22071.328125
6343.371289	1.526188	0.379695	782.934326
6343.372204	1.884767	0.379695	2507.496094
6343.373073	1.838078	0.379695	4104.786133
6343.374142	1.770681	0.379695	5997.644531
6343.375149	1.709388	0.379695	7718.998535
6343.376039	1.658621	0.379695	9195.170898
6343.377019	1.605579	0.379695	10768.637695
6343.378081	1.548450	0.379695	12413.090820
6343.378993	1.498894	0.379695	13780.082031
6343.379864	1.452825	0.379695	15045.492187
6343.380985	1.400596	0.379695	16615.560547
6343.381961	1.355713	0.379695	17938.736328
6343.382838	1.316107	0.379695	19092.962891
6343.383938	1.269913	0.379695	20489.867187
6343.384985	0.616077	0.379695	21134.898437
6343.385876	0.090754	0.379695	21215.759766
6343.386805	0.090656	0.379695	21299.978516
6343.387846	0.090674	0.379695	21394.369141
6343.388778	0.090557	0.379695	21478.767578
6343.389637	0.090557	0.379695	21556.556641
6343.390684	0.090656	0.379695	21651.472656
6343.391708	0.090579	0.379695	21744.224609
6343.392587	0.090634	0.379695	21823.890625
6343.393526	0.090699	0.379695	21909.056641
6343.394582	0.090641	0.379695	22004.773437
6344.416191	1.431877	0.366829	609.979736
6344.417223	1.882961	0.366829	2553.195801
6344.418245	1.828451	0.366829	4421.872559
6344.419119	1.771897	0.366829	5970.510742
6344.420078	1.713768	0.366829	7614.014648
6344.421136	1.652476	0.366829	9362.333984
6344.422068	1.602129	0.366829	10855.517578
6344.422934	1.554349	0.366829	12201.583984
6344.423983	1.498645	0.366829	13773.662109
6344.425000	1.447401	0.366829	15245.668945
6344.425892	1.404613	0.366829	16498.583984
6344.426865	1.360005	0.366829	17821.869141
6344.427929	1.312632	0.366829	19218.509766
6344.428847	1.272960	0.366829	20387.087891
6344.429715	0.898813	0.366829	21167.257812
6344.430819	0.092051	0.366829	21268.882812
6344.431814	0.090579	0.366829	21359.007812
6344.432709	0.090652	0.366829	21440.140625
6344.433699	0.090743	0.366829	21529.976562
6344.434738	0.090648	0.366829	21624.160156
6344.435621	0.090560	0.366829	21704.125000
6344.436483	0.090652	0.366829	21782.267578
6344.437576	0.090754	0.366829	21881.462891
6344.438535	0.090520	0.366829	21968.271484
6344.439396	0.090619	0.366829	22046.294922
6345.462263	1.468001	0.397190	687.024231
6345.463154	1.885869	0.397190	2367.333496
6345.464054	1.839364	0.397190	4022.761230
6345.465065	1.776149	0.397190	5818.447266
6345.465987	1.719207	0.397190	7403.555664
6345.466884	1.667875	0.397190	8899.639648
6345.467880	1.613914	0.397190	10507.097656
6345.468791	1.563776	0.397190	11931.697266
6345.469714	1.514282	0.397190	13329.379883
6345.470583	1.466982	0.397190	14604.187500
6345.471645	1.416771	0.397190	16108.798828
6345.472540	1.375144	0.397190	17339.552734
6345.473423	1.335425	0.397190	18518.732422
6345.474438	1.291901	0.397190	19830.011719
6345.475368	1.251032	0.397190	20993.470703
6345.476261	0.278112	0.397190	21241.824219
6345.477254	0.090645	0.397190	21331.833984
6345.478257	0.090472	0.397190	21422.578125
6345.479134	0.090615	0.397190	21502.046875
6345.479997	0.090626	0.397190	21580.257812
6345.481049	0.090637	0.397190	21675.607422
6345.481965	0.090571	0.397190	21758.570312
6345.482842	0.090538	0.397190	21837.972656
6345.483813	0.090641	0.397190	21925.984375
6345.484831	0.090579	0.397190	22018.193359
6346.507296	1.527861	0.380009	786.848572
6346.508262	1.882668	0.380009	2605.506104
6346.509135	1.835328	0.380009	4207.748047
6346.510167	1.770447	0.380009	6034.849121
6346.511221	1.707030	0.380009	7834.058594
6346.512103	1.654812	0.380009	9293.602539
6346.512986	1.605040	0.380009	10710.853516
6346.514083	1.548615	0.380009	12409.683594
6346.515041	1.496942	0.380009	13843.753906
6346.515904	1.452305	0.380009	15097.092773
6346.516939	1.402493	0.380009	16548.671875
6346.517991	1.354439	0.380009	17973.541016
6346.518864	1.314250	0.380009	19120.880859
6346.519797	1.275542	0.380009	20310.960937
6346.520867	0.758225	0.380009	21122.261719
6346.521798	0.091582	0.380009	21207.525391
6346.522662	0.090575	0.380009	21285.781250
6346.523707	0.090641	0.380009	21380.500000
6346.524733	0.090586	0.380009	21473.441406
6346.525620	0.090557	0.380009	21553.765625
6346.526581	0.090652	0.380009	21640.882812
6346.527635	0.090630	0.380009	21736.406250
6346.528561	0.090527	0.380009	21820.234375
6346.529424	0.090582	0.380009	21898.406250
6346.530497	0.090612	0.380009	21995.632812
6347.553816	1.514820	0.396574	764.984314
6347.554826	1.881266	0.396574	2665.062744
6347.555703	1.832542	0.396574	4272.201660
6347.556701	1.769011	0.396574	6037.674805
6347.557763	1.705811	0.396574	7849.245605
6347.558655	1.653113	0.396574	9323.822266
6347.559523	1.603403	0.396574	10715.576172
6347.560639	1.545732	0.396574	12440.613281
6347.561599	1.494756	0.396574	13875.579102
6347.562470	1.450525	0.396574	15138.986328
6347.563503	1.401061	0.396574	16586.281250
6347.564548	1.353267	0.396574	18000.445312
6347.565438	1.313522	0.396574	19169.480469
6347.566395	1.273601	0.396574	20388.316406
6347.567447	0.702173	0.396574	21127.001953
6347.568386	0.090894	0.396574	21212.351562
6347.569251	0.090476	0.396574	21290.613281
6347.570296	0.090623	0.396574	21385.314453
6347.571306	0.090439	0.396574	21476.658203
6347.572188	0.090604	0.396574	21556.570312
6347.573151	0.090699	0.396574	21643.914062
6347.574200	0.090593	0.396574	21738.947266
6347.575123	0.090538	0.396574	21822.513672
6347.575978	0.090648	0.396574	21900.017578
6347.577068	0.090623	0.396574	21998.796875
6348.597274	1.527488	0.381033	789.711182
6348.598222	1.883291	0.381033	2575.070801
6348.599087	1.836606	0.381033	4163.735352
6348.600148	1.769388	0.381033	6041.056641
6348.601174	1.707451	0.381033	7792.901367
6348.602069	1.655889	0.381033	9274.921875
6348.603037	1.603630	0.381033	10827.236328
6348.604090	1.546864	0.381033	12456.083984
6348.605013	1.496642	0.381033	13837.484375
6348.605881	1.451290	0.381033	15097.204102
6348.606958	1.401072	0.381033	16606.158203
6348.607961	1.354424	0.381033	17964.644531
6348.608838	1.315023	0.381033	19117.919922
6348.609836	1.273993	0.381033	20389.365234
6348.610889	0.743932	0.381033	21172.724609
6348.611788	0.091798	0.381033	21255.251953
6348.612646	0.090626	0.381033	21333.009766
6348.613724	0.090674	0.381033	21430.755859
6348.614716	0.090516	0.381033	21520.548828
6348.615608	0.090601	0.381033	21601.365234
6348.616588	0.090597	0.381033	21690.150391
6348.617652	0.090619	0.381033	21786.568359
6348.618538	0.090542	0.381033	21866.789062
6348.619413	0.090597	0.381033	21946.060547
6348.620513	0.090582	0.381033	22045.701172
6349.644286	1.493328	0.362108	727.250549
6349.645168	1.885803	0.362108	2390.529053
6349.646034	1.842850	0.362108	3986.437500
6349.647089	1.775618	0.362108	5859.714355
6349.648061	1.716647	0.362108	7528.294922
6349.648930	1.665670	0.362108	8975.762695
6349.649961	1.608871	0.362108	10634.508789
6349.650992	1.554445	0.362108	12237.140625
6349.651879	1.506218	0.362108	13573.156250
6349.652810	1.458373	0.362108	14930.901367
6349.653861	1.407195	0.362108	16409.863281
6349.654804	1.363689	0.362108	17695.822266
6349.655670	1.324552	0.362108	18842.884766
6349.656725	1.279845	0.362108	20193.121094
6349.657756	0.940507	0.362108	21162.783203
6349.658628	0.099434	0.362108	21249.490234
6349.659575	0.090593	0.362108	21335.281250
6349.660631	0.090553	0.362108	21430.904297
6349.661553	0.090505	0.362108	21514.349609
6349.662418	0.090604	0.362108	21592.722656
6349.663482	0.090732	0.362108	21689.261719
6349.664494	0.090502	0.362108	21780.849609
6349.665388	0.090520	0.362108	21861.775391
6349.666359	0.090659	0.362108	21949.804687
6349.667409	0.090597	0.362108	22044.931641
6350.688704	1.447365	0.387103	620.919373
6350.689578	1.886583	0.387103	2269.793213
6350.690570	1.840404	0.387103	4095.473877
6350.691488	1.779825	0.387103	5729.353516
6350.692408	1.723367	0.387103	7314.850586
6350.693293	1.670599	0.387103	8793.331055
6350.694321	1.615052	0.387103	10453.605469
6350.695216	1.567236	0.387103	11856.282227
6350.696104	1.519849	0.387103	13205.908203
6350.697084	1.469293	0.387103	14645.815430
6350.698044	1.420972	0.387103	16009.948242
6350.698968	1.378055	0.387103	17283.271484
6350.699838	1.338545	0.387103	18447.804687
6350.700874	1.294336	0.387103	19788.736328
6350.701760	1.256862	0.387103	20902.316406
6350.702627	0.429470	0.387103	21274.667969
6350.703681	0.090652	0.387103	21370.214844
6350.704621	0.090626	0.387103	21455.404297
6350.705485	0.090659	0.387103	21533.734375
6350.706379	0.090626	0.387103	21614.753906
6350.707456	0.090549	0.387103	21712.275391
6350.708349	0.090527	0.387103	21793.117187
6350.709210	0.090670	0.387103	21871.183594
6350.710252	0.090699	0.387103	21965.693359
6350.711228	0.090524	0.387103	22054.044922
6350.712100	0.090637	0.387103	22133.080078
6351.735733	1.443333	0.385109	607.643005
6351.736846	1.880072	0.385109	2700.163086
6351.737813	1.826301	0.385109	4466.196289
6351.738690	1.770062	0.385109	6018.541016
6351.739742	1.706774	0.385109	7814.066895
6351.740771	1.648063	0.385109	9509.923828
6351.741658	1.599130	0.385109	10928.351562
6351.742585	1.549314	0.385109	12364.565430
6351.743641	1.492782	0.385109	13940.943359
6351.744581	1.445570	0.385109	15299.779297
6351.745448	1.403452	0.385109	16516.572266
6351.746511	1.355244	0.385109	17957.197266
6351.747548	1.309270	0.385109	19314.910156
6351.748422	1.271763	0.385109	20426.431641
6351.749380	0.778586	0.385109	21172.318359
6351.750444	0.091165	0.385109	21269.318359
6351.751349	0.090483	0.385109	21351.205078
6351.752263	0.090538	0.385109	21433.957031
6351.753141	0.090538	0.385109	21513.449219
6351.754159	0.090582	0.385109	21605.662109
6351.755053	0.090487	0.385109	21686.556641
6351.755926	0.090487	0.385109	21765.552734
6351.756850	0.090546	0.385109	21849.216797
6351.757841	0.090549	0.385109	21938.951172
6351.758762	0.090564	0.385109	22022.361328
6352.779801	1.526927	0.404913	780.259949
6352.780809	1.880830	0.404913	2676.136475
6352.781710	1.830711	0.404913	4325.606445
6352.782669	1.770198	0.404913	6023.226074
6352.783732	1.705855	0.404913	7836.549316
6352.784655	1.652091	0.404913	9361.429687
6352.785522	1.603759	0.404913	10751.888672
6352.786592	1.547809	0.404913	12408.043945
6352.787588	1.494225	0.404913	13896.291992
6352.788467	1.449679	0.404913	15170.559570
6352.789466	1.402588	0.404913	16571.744141
6352.790529	1.353801	0.404913	18010.833984
6352.791417	1.313225	0.404913	19176.978516
6352.792282	1.274355	0.404913	20279.296875
6352.793389	0.773390	0.404913	21135.439453
6352.794351	0.091340	0.404913	21223.308594
6352.795206	0.090568	0.404913	21300.744141
6352.796267	0.090670	0.404913	21396.945312
6352.797310	0.090538	0.404913	21491.376953
6352.798193	0.090571	0.404913	21571.351562
6352.799111	0.090546	0.404913	21654.472656
6352.800189	0.090608	0.404913	21752.148437
6352.801137	0.090564	0.404913	21838.003906
6352.802003	0.090608	0.404913	21916.470703
6352.803037	0.090670	0.404913	22010.224609
6353.826829	1.514601	0.375897	761.844238
6353.827759	1.884067	0.375897	2514.026855
6353.828628	1.837581	0.375897	4110.884766
6353.829712	1.769418	0.375897	6028.933594
6353.830713	1.708839	0.375897	7739.481445
6353.831603	1.657551	0.375897	9214.702148
6353.832595	1.604751	0.375897	10806.615234
6353.833657	1.547212	0.375897	12449.753906
6353.834576	1.496953	0.375897	13825.454102
6353.835444	1.451290	0.375897	15085.173828
6353.836539	1.400211	0.375897	16618.404297
6353.837529	1.354369	0.375897	17959.230469
6353.838422	1.314796	0.375897	19133.343750
6353.839426	1.272686	0.375897	20411.119141
6353.840494	0.684203	0.375897	21141.847656
6353.841375	0.091249	0.375897	21222.238281
6353.842260	0.090582	0.375897	21302.404297
6353.843336	0.090714	0.375897	21400.011719
6353.844285	0.090656	0.375897	21486.042969
6353.845143	0.090699	0.375897	21563.863281
6353.846168	0.090736	0.375897	21656.867187
6353.847226	0.090634	0.375897	21752.757812
6353.848096	0.090604	0.375897	21831.583984
6353.849016	0.090681	0.375897	21915.009766
6353.850083	0.090652	0.375897	22011.734375
6354.869832	1.578688	0.391402	874.593018
6354.870805	1.880607	0.391402	2704.423340
6354.871687	1.831219	0.391402	4319.558594
6354.872551	1.772410	0.391402	5850.920410
6354.873702	1.707195	0.391402	7815.901367
6354.874599	1.654512	0.391402	9299.998047
6354.875474	1.605308	0.391402	10704.642578
6354.876586	1.548040	0.391402	12426.062500
6354.877555	1.495763	0.391402	13875.457031
6354.878425	1.450986	0.391402	15137.815430
6354.879476	1.400252	0.391402	16609.480469
6354.880506	1.352307	0.391402	18002.357422
6354.881394	1.313262	0.391402	19168.533203
6354.882341	1.273821	0.391402	20374.841797
6354.883396	0.725475	0.391402	21140.218750
6354.884330	0.091183	0.391402	21225.382812
6354.885191	0.090458	0.391402	21303.267578
6354.886255	0.090582	0.391402	21399.646484
6354.887268	0.090575	0.391402	21491.398437
6354.888142	0.090557	0.391402	21570.544922
6354.889098	0.090674	0.391402	21657.228516
6354.890169	0.090601	0.391402	21754.261719
6354.891079	0.090527	0.391402	21836.642578
6354.891947	0.090535	0.391402	21915.226562
6354.893006	0.090601	0.391402	22011.171875
6355.917780	1.485633	0.403571	656.650024
6355.918662	1.885825	0.403571	2319.947754
6355.919528	1.842030	0.403571	3915.145508
6355.920592	1.776702	0.403571	5805.556152
6355.921491	1.721949	0.403571	7353.588867
6355.922358	1.669735	0.403571	8801.249023
6355.923474	1.610680	0.403571	10598.767578
6355.924390	1.560967	0.403571	12028.613281
6355.925270	1.513942	0.403571	13360.881836
6355.926285	1.461947	0.403571	14844.757812
6355.927279	1.412845	0.403571	16249.125977
6355.928172	1.371090	0.403571	17473.509766
6355.929034	1.330624	0.403571	18620.507812
6355.930141	1.284921	0.403571	20042.914062
6355.931048	1.188036	0.403571	21120.462891
6355.931920	0.172830	0.403571	21271.169922
6355.932924	0.090557	0.403571	21362.087891
6355.933924	0.090549	0.403571	21452.636719
6355.934810	0.090560	0.403571	21532.873047
6355.935791	0.090674	0.403571	21621.824219
6355.936846	0.090626	0.403571	21717.435547
6355.937744	0.090575	0.403571	21798.771484
6355.938608	0.090656	0.403571	21877.097656
6355.939705	0.090696	0.403571	21976.591797
6355.940663	0.090516	0.403571	22063.306641
6356.961220	1.445457	0.414105	627.328125
6356.962096	1.885895	0.414105	2279.372070
6356.963061	1.840935	0.414105	4055.874512
6356.964035	1.778049	0.414105	5787.694336
6356.964966	1.721393	0.414105	7390.311035
6356.965832	1.670098	0.414105	8836.615234
6356.966873	1.614705	0.414105	10517.522461
6356.967747	1.565874	0.414105	11886.096680
6356.968628	1.518168	0.414105	13223.602539
6356.969539	1.469571	0.414105	14562.381836
6356.970549	1.420496	0.414105	15997.082031
6356.971476	1.377451	0.414105	17273.978516
6356.972360	1.338153	0.414105	18456.906250
6356.973357	1.294981	0.414105	19748.001953
6356.974283	1.255679	0.414105	20910.759766
6356.975167	0.390513	0.414105	21255.972656
6356.976164	0.090597	0.414105	21346.296875
6356.977155	0.090524	0.414105	21436.005859
6356.978034	0.090564	0.414105	21515.611328
6356.978890	0.090630	0.414105	21593.191406
6356.979980	0.090623	0.414105	21691.970703
6356.980885	0.090590	0.414105	21773.955078
6356.981752	0.090579	0.414105	21852.486328
6356.982730	0.090652	0.414105	21941.144531
6356.983730	0.090601	0.414105	22031.746094
6356.984622	0.090681	0.414105	22112.632812
6358.007761	1.455721	0.384223	630.327332
6358.008722	1.882892	0.384223	2439.786377
6358.009772	1.829242	0.384223	4360.490234
6358.010704	1.769502	0.384223	6009.666016
6358.011572	1.715929	0.384223	7499.092285
6358.012641	1.655511	0.384223	9268.833984
6358.013658	1.600118	0.384223	10896.154297
6358.014535	1.552837	0.384223	12257.992187
6358.015511	1.500007	0.384223	13721.999023
6358.016576	1.446365	0.384223	15262.376953
6358.017487	1.401848	0.384223	16539.460937
6358.018356	1.360269	0.384223	17721.535156
6358.019438	1.313328	0.384223	19142.554687
6358.020434	1.271144	0.384223	20408.613281
6358.021333	0.872150	0.384223	21192.675781
6358.022203	0.095588	0.384223	21275.837891
6358.023183	0.090579	0.384223	21364.605469
6358.024126	0.090579	0.384223	21450.021484
6358.025046	0.090549	0.384223	21533.326172
6358.025908	0.090579	0.384223	21611.404297
6358.026946	0.090560	0.384223	21705.406250
6358.027821	0.090527	0.384223	21784.617187
6358.028687	0.090542	0.384223	21863.027344
6358.029660	0.090623	0.384223	21951.203125
6358.030601	0.090505	0.384223	22036.369141
6359.052352	1.557092	0.387095	840.829773
6359.053396	1.878318	0.387095	2801.793701
6359.054274	1.827407	0.387095	4406.257324
6359.055222	1.767103	0.387095	6081.471191
6359.056304	1.702072	0.387095	7923.112305
6359.057239	1.648315	0.387095	9464.287109
6359.058107	1.600723	0.387095	10853.714844
6359.059158	1.544846	0.387095	12477.347656
6359.060175	1.490625	0.387095	13993.313477
6359.061075	1.445339	0.387095	15294.119141
6359.062057	1.398746	0.387095	16667.687500
6359.063119	1.348678	0.387095	18099.984375
6359.064049	1.308226	0.387095	19316.634766
6359.064915	1.270364	0.387095	20416.769531
6359.066010	0.634453	0.387095	21111.496094
6359.067006	0.090487	0.387095	21201.621094
6359.067900	0.090641	0.387095	21282.654297
6359.068917	0.090685	0.387095	21374.880859
6359.069964	0.090648	0.387095	21469.789062
6359.070857	0.090535	0.387095	21550.636719
6359.071739	0.090663	0.387095	21630.601562
6359.072844	0.090692	0.387095	21730.816406
6359.073799	0.090560	0.387095	21817.300781
6359.074659	0.090641	0.387095	21895.251953
6359.075686	0.090710	0.387095	21988.412109
6360.098877	1.568741	0.392928	856.532837
6360.099929	1.877355	0.392928	2831.510010
6360.100816	1.825990	0.392928	4451.163086
6360.101752	1.766759	0.392928	6104.849609
6360.102815	1.702236	0.392928	7914.327148
6360.103775	1.647795	0.392928	9496.210937
6360.104640	1.600148	0.392928	10880.338867
6360.105697	1.544019	0.392928	12512.366211
6360.106703	1.490435	0.392928	14011.743164
6360.107601	1.445057	0.392928	15309.404297
6360.108564	1.399427	0.392928	16657.052734
6360.109623	1.350278	0.392928	18086.998047
6360.110542	1.309526	0.392928	19290.453125
6360.111405	1.272187	0.392928	20388.351562
6360.112465	0.711325	0.392928	21142.355469
6360.113455	0.090798	0.392928	21232.246094
6360.114330	0.090553	0.392928	21311.480469
6360.115287	0.090637	0.392928	21398.220703
6360.116350	0.090641	0.392928	21494.572266
6360.117243	0.090615	0.392928	21575.492187
6360.118110	0.090674	0.392928	21654.105469
6360.119187	0.090685	0.392928	21751.773437
6360.120182	0.090615	0.392928	21841.935547
6360.121075	0.090623	0.392928	21922.861328
6360.122060	0.090630	0.392928	22012.130859
6361.142802	1.513766	0.408981	759.910461
6361.143730	1.883273	0.408981	2507.587402
6361.144598	1.836705	0.408981	4101.847656
6361.145678	1.768803	0.408981	6012.154297
6361.146682	1.707942	0.408981	7726.927734
6361.147579	1.656460	0.408981	9212.772461
6361.148550	1.603740	0.408981	10770.003906
6361.149603	1.547567	0.408981	12399.591797
6361.150519	1.498066	0.408981	13771.820312
6361.151385	1.452239	0.408981	15029.458984
6361.152475	1.401453	0.408981	16557.042969
6361.153476	1.355233	0.408981	17913.630859
6361.154360	1.315920	0.408981	19076.904297
6361.155369	1.273484	0.408981	20361.849609
6361.156409	0.753142	0.408981	21145.117187
6361.157293	0.092076	0.408981	21226.513672
6361.158161	0.090626	0.408981	21305.177734
6361.159253	0.090732	0.408981	21404.257812
6361.160218	0.090586	0.408981	21491.673828
6361.161077	0.090619	0.408981	21569.515625
6361.162090	0.090762	0.408981	21661.457031
6361.163132	0.090637	0.408981	21755.900391
6361.164019	0.090656	0.408981	21836.312500
6361.164927	0.090721	0.408981	21918.687500
6361.165990	0.090703	0.408981	22015.105469
6362.188833	1.527814	0.389283	776.129333
6362.189841	1.879944	0.389283	2671.112793
6362.190734	1.830377	0.389283	4305.639648
6362.191702	1.769044	0.389283	6018.074219
6362.192769	1.704455	0.389283	7836.728516
6362.193685	1.651820	0.389283	9349.795898
6362.194560	1.602997	0.389283	10752.417969
6362.195644	1.546974	0.389283	12429.337891
6362.196641	1.493042	0.389283	13917.900391
6362.197539	1.447657	0.389283	15217.896484
6362.198521	1.400702	0.389283	16593.386719
6362.199576	1.351545	0.389283	18019.267578
6362.200486	1.310797	0.389283	19212.093750
6362.201351	1.273242	0.389283	20313.447266
6362.202464	0.700745	0.389283	21093.376953
6362.203425	0.090747	0.389283	21180.583984
6362.204287	0.090634	0.389283	21258.710937
6362.205362	0.090732	0.389283	21356.248047
6362.206404	0.090630	0.389283	21450.683594
6362.207283	0.090670	0.389283	21530.382812
6362.208203	0.090725	0.389283	21613.849609
6362.209263	0.090681	0.389283	21709.970703
6362.210201	0.090630	0.389283	21794.982422
6362.211057	0.090670	0.389283	21872.595703
6362.212108	0.090758	0.389283	21967.982422
6363.233230	1.469074	0.394246	649.330505
6363.234112	1.885565	0.394246	2312.398926
6363.234972	1.843055	0.394246	3897.426514
6363.236088	1.774988	0.394246	5878.312500
6363.236994	1.718672	0.394246	7435.429199
6363.237866	1.668307	0.394246	8890.193359
6363.238876	1.613375	0.394246	10519.702148
6363.239878	1.559231	0.394246	12082.051758
6363.240758	1.511737	0.394246	13412.379883
6363.241625	1.464763	0.394246	14682.330078
6363.242716	1.413175	0.394246	16224.104492
6363.243633	1.370021	0.394246	17480.414062
6363.244511	1.329371	0.394246	18647.601562
6363.245595	1.284137	0.394246	20039.605469
6363.246599	1.076455	0.394246	21120.367187
6363.247499	0.120333	0.394246	21228.667969
6363.248485	0.090710	0.394246	21318.109375
6363.249536	0.090663	0.394246	21413.396484
6363.250424	0.090674	0.394246	21493.914062
6363.251291	0.090692	0.394246	21572.544922
6363.252387	0.090707	0.394246	21671.958984
6363.253341	0.090571	0.394246	21758.363281
6363.254203	0.090560	0.394246	21836.425781
6363.255231	0.090714	0.394246	21929.679687
6363.256267	0.090612	0.394246	22023.552734
6364.279781	1.490563	0.396795	673.734314
6364.280664	1.885126	0.396795	2338.300293
6364.281532	1.843528	0.396795	3938.482422
6364.282535	1.780067	0.396795	5723.889648
6364.283459	1.721964	0.396795	7314.984375
6364.284381	1.668457	0.396795	8853.301758
6364.285268	1.618898	0.396795	10289.263672
6364.286300	1.565475	0.396795	11904.833984
6364.287199	1.518153	0.396795	13269.653320
6364.288063	1.470637	0.396795	14540.284180
6364.289141	1.418745	0.396795	16069.691406
6364.290079	1.374488	0.396795	17358.960937
6364.290954	1.334564	0.396795	18526.705078
6364.291929	1.293358	0.396795	19787.728516
6364.292940	1.244491	0.396795	21045.908203
6364.293825	0.249097	0.396795	21266.359375
6364.294681	0.090472	0.396795	21343.804687
6364.295735	0.090707	0.396795	21439.410156
6364.296672	0.090542	0.396795	21524.248047
6364.297540	0.090579	0.396795	21602.871094
6364.298469	0.090707	0.396795	21687.138672
6364.299531	0.090590	0.396795	21783.345703
6364.300420	0.090597	0.396795	21863.886719
6364.301357	0.090656	0.396795	21948.830078
6364.302420	0.090648	0.396795	22045.189453
6365.324874	1.543718	0.410697	878.375671
6365.325916	1.876813	0.410697	2834.014404
6365.326812	1.824763	0.410697	4469.002441
6365.327677	1.767026	0.410697	5997.480469
6365.328780	1.703145	0.410697	7876.048828
6365.329763	1.647404	0.410697	9495.446289
6365.330630	1.599181	0.410697	10881.936523
6365.331723	1.541847	0.410697	12567.174805
6365.332765	1.486150	0.410697	14115.743164
6365.333644	1.441630	0.410697	15382.935547
6365.334588	1.396780	0.410697	16701.496094
6365.335659	1.347975	0.410697	18145.177734
6365.336592	1.306483	0.410697	19364.126953
6365.337495	1.268295	0.410697	20509.396484
6365.338384	0.786768	0.410697	21208.832031
6365.339416	0.091154	0.410697	21302.902344
6365.340312	0.090579	0.410697	21384.060547
6365.341185	0.090590	0.410697	21463.144531
6365.342118	0.090674	0.410697	21547.744141
6365.343100	0.090579	0.410697	21636.691406
6365.344008	0.090553	0.410697	21718.914062
6365.344887	0.090634	0.410697	21798.580078
6365.345905	0.090645	0.410697	21890.855469
6365.346807	0.090612	0.410697	21972.587891
6365.347726	0.090612	0.410697	22055.859375
6366.370228	1.427607	0.400341	598.167480
6366.371192	1.882196	0.400341	2412.604492
6366.372261	1.828059	0.400341	4366.799805
6366.373195	1.768356	0.400341	6018.444336
6366.374064	1.714687	0.400341	7508.507812
6366.375103	1.655490	0.400341	9228.561523
6366.376125	1.599470	0.400341	10863.219727
6366.377017	1.552299	0.400341	12247.870117
6366.377978	1.501238	0.400341	13690.559570
6366.379038	1.447104	0.400341	15224.490234
6366.379969	1.402017	0.400341	16529.767578
6366.380838	1.360789	0.400341	17712.292969
6366.381932	1.313328	0.400341	19149.074219
6366.382928	1.270697	0.400341	20414.687500
6366.383828	0.873010	0.400341	21200.396484
6366.384823	0.094669	0.400341	21294.591797
6366.385856	0.090641	0.400341	21388.224609
6366.386760	0.090575	0.400341	21470.103516
6366.387625	0.090571	0.400341	21548.447266
6366.388720	0.090725	0.400341	21647.791016
6366.389677	0.090483	0.400341	21734.382812
6366.390535	0.090535	0.400341	21812.062500
6366.391606	0.090677	0.400341	21909.177734
6366.392642	0.090564	0.400341	22003.001953
6366.393522	0.090582	0.400341	22082.714844
6367.415821	1.507771	0.392666	761.424377
6367.416697	1.884569	0.392666	2412.306885
6367.417594	1.837804	0.392666	4060.816895
6367.418691	1.769205	0.392666	6001.635254
6367.419655	1.711055	0.392666	7651.091797
6367.420527	1.660510	0.392666	9099.056641
6367.421571	1.603308	0.392666	10772.910156
6367.422600	1.549156	0.392666	12366.992187
6367.423491	1.500322	0.392666	13703.779297
6367.424440	1.452733	0.392666	15082.422852
6367.425481	1.402255	0.392666	16542.169922
6367.426411	1.359210	0.392666	17806.236328
6367.427279	1.319670	0.392666	18951.710937
6367.428347	1.275469	0.392666	20313.912109
6367.429362	0.833298	0.392666	21159.708984
6367.430229	0.094167	0.392666	21241.351562
6367.431186	0.090615	0.392666	21328.070312
6367.432223	0.090601	0.392666	21422.023437
6367.433144	0.090648	0.392666	21505.509766
6367.434014	0.090648	0.392666	21584.373047
6367.435062	0.090776	0.392666	21679.505859
6367.436065	0.090553	0.392666	21770.330078
6367.436955	0.090590	0.392666	21850.955078
6367.437918	0.090608	0.392666	21938.210937
6367.438973	0.090604	0.392666	22033.798828
6368.462357	1.515333	0.419709	765.243225
6368.463241	1.883906	0.419709	2430.616455
6368.464119	1.837309	0.419709	4043.774170
6368.465215	1.769784	0.419709	5983.457520
6368.466170	1.712025	0.419709	7618.441406
6368.467033	1.662001	0.419709	9052.748047
6368.468077	1.605513	0.419709	10728.903320
6368.469113	1.550391	0.419709	12335.108398
6368.469989	1.501688	0.419709	13650.586914
6368.470906	1.454594	0.419709	14984.449219
6368.471991	1.402628	0.419709	16506.300781
6368.472938	1.359207	0.419709	17793.468750
6368.473807	1.320055	0.419709	18940.595703
6368.474842	1.276417	0.419709	20261.687500
6368.475880	0.840436	0.419709	21134.060547
6368.476772	0.093673	0.419709	21217.617187
6368.477732	0.090674	0.419709	21304.664062
6368.478773	0.090652	0.419709	21399.033203
6368.479707	0.090608	0.419709	21483.660156
6368.480570	0.090674	0.419709	21561.912109
6368.481652	0.090707	0.419709	21660.056641
6368.482645	0.090582	0.419709	21750.003906
6368.483528	0.090538	0.419709	21829.949219
6368.484511	0.090696	0.419709	21919.103516
6368.485546	0.090688	0.419709	22012.966797
6369.505773	1.498378	0.399076	710.231018
6369.506654	1.884639	0.399076	2370.597656
6369.507520	1.841331	0.399076	3965.189941
6369.508592	1.773908	0.399076	5866.818848
6369.509539	1.716423	0.399076	7492.271973
6369.510408	1.665399	0.399076	8939.503906
6369.511488	1.606882	0.399076	10674.936523
6369.512497	1.552529	0.399076	12241.438477
6369.513393	1.504219	0.399076	13589.218750
6369.514374	1.455176	0.399076	15016.746094
6369.515431	1.403969	0.399076	16500.740234
6369.516346	1.360935	0.399076	17745.996094
6369.517214	1.321025	0.399076	18892.646484
6369.518292	1.276311	0.399076	20268.509766
6369.519282	0.900670	0.399076	21160.173828
6369.520168	0.096991	0.399076	21246.107422
6369.521160	0.090703	0.399076	21336.083984
6369.522210	0.090681	0.399076	21431.298828
6369.523097	0.090615	0.399076	21511.673828
6369.523957	0.090699	0.399076	21589.675781
6369.525053	0.090721	0.399076	21689.107422
6369.526021	0.090575	0.399076	21776.783203
6369.526877	0.090586	0.399076	21854.324219
6369.527925	0.090634	0.399076	21949.308594
6369.528971	0.090656	0.399076	22044.134766
6370.553279	1.439092	0.403035	614.492187
6370.554145	1.884664	0.403035	2246.611328
6370.555246	1.831849	0.403035	4263.477539
6370.556184	1.771432	0.403035	5925.080566
6370.557065	1.717991	0.403035	7438.630371
6370.558062	1.661803	0.403035	9095.448242
6370.559054	1.606157	0.403035	10688.755859
6370.559947	1.558440	0.403035	12080.442383
6370.560813	1.510430	0.403035	13388.474609
6370.561879	1.457153	0.403035	14941.799805
6370.562790	1.412014	0.403035	16228.144531
6370.563667	1.371445	0.403035	17430.902344
6370.564641	1.328038	0.403035	18724.412109
6370.565672	1.283621	0.403035	20047.824219
6370.566561	1.197180	0.403035	21112.117187
6370.567536	0.174467	0.403035	21282.222656
6370.568597	0.090626	0.403035	21378.376953
6370.569513	0.090601	0.403035	21461.367187
6370.570378	0.090582	0.403035	21539.720703
6370.571469	0.090677	0.403035	21638.650391
6370.572468	0.090557	0.403035	21729.117187
6370.573358	0.090579	0.403035	21809.732422
6370.574340	0.090667	0.403035	21898.767578
6370.575395	0.090634	0.403035	21994.386719
6370.576297	0.090677	0.403035	22076.177734
6371.596221	1.437931	0.409223	605.368896
6371.597096	1.885598	0.409223	2255.267334
6371.597960	1.843480	0.409223	3848.034180
6371.599012	1.778950	0.409223	5719.489746
6371.599896	1.724692	0.409223	7244.117676
6371.600772	1.674020	0.409223	8710.558594
6371.601803	1.618418	0.409223	10379.147461
6371.602724	1.567471	0.409223	11822.788086
6371.603632	1.518230	0.409223	13201.340820
6371.604515	1.471069	0.409223	14500.294922
6371.605527	1.422151	0.409223	15939.511719
6371.606431	1.379645	0.409223	17186.710937
6371.607311	1.339274	0.409223	18365.271484
6371.608277	1.298434	0.409223	19619.558594
6371.609254	1.258004	0.409223	20848.628906
6371.610140	0.439292	0.409223	21237.841797
6371.611056	0.090527	0.409223	21320.765625
6371.612116	0.090520	0.409223	21416.716797
6371.612997	0.090557	0.409223	21496.498047
6371.613855	0.090502	0.409223	21574.148437
6371.614908	0.090729	0.409223	21669.685547
6371.615864	0.090520	0.409223	21756.222656
6371.616728	0.090656	0.409223	21834.548828
6371.617621	0.090710	0.409223	21915.552734
6371.618718	0.090546	0.409223	22014.880859
6371.619608	0.090615	0.409223	22095.529297
6372.645360	1.490006	0.408840	715.202942
6372.646240	1.884804	0.408840	2373.830078
6372.647177	1.837844	0.408840	4095.890137
6372.648238	1.769549	0.408840	5973.382324
6372.649177	1.713142	0.408840	7582.022461
6372.650053	1.661785	0.408840	9037.746094
6372.651122	1.603726	0.408840	10752.128906
6372.652138	1.549314	0.408840	12326.231445
6372.653034	1.501132	0.408840	13671.245117
6372.653982	1.453363	0.408840	15049.033203
6372.655027	1.402976	0.408840	16515.142578
6372.655962	1.358958	0.408840	17785.767578
6372.656883	1.318433	0.408840	19000.044922
6372.657754	1.279944	0.408840	20114.875000
6372.658802	0.981387	0.408840	21143.367187
6372.659691	0.103652	0.408840	21235.513672
6372.660557	0.090513	0.408840	21313.898437
6372.661508	0.090667	0.408840	21400.123047
6372.662459	0.090623	0.408840	21486.304687
6372.663374	0.090553	0.408840	21569.160156
6372.664252	0.090582	0.408840	21648.691406
6372.665287	0.090634	0.408840	21742.498047
6372.666182	0.090590	0.408840	21823.576172
6372.667056	0.090615	0.408840	21902.773437
6372.667939	0.090659	0.408840	21982.826172
6373.687345	1.529531	0.435399	830.535461
6373.688415	1.876388	0.435399	2838.270752
6373.689305	1.824038	0.435399	4461.664551
6373.690178	1.765624	0.435399	6003.054199
6373.691285	1.701478	0.435399	7886.590820
6373.692261	1.646602	0.435399	9493.673828
6373.693126	1.599569	0.435399	10877.300781
6373.694171	1.543363	0.435399	12490.115234
6373.695214	1.487952	0.435399	14042.048828
6373.696108	1.442673	0.435399	15331.798828
6373.697037	1.398160	0.435399	16630.689453
6373.698111	1.349052	0.435399	18079.570312
6373.699053	1.307600	0.435399	19311.330078
6373.699926	1.270345	0.435399	20420.341797
6373.700983	0.659209	0.435399	21117.125000
6373.701996	0.090535	0.435399	21208.835937
6373.702887	0.090575	0.435399	21289.539062
6373.703831	0.090710	0.435399	21375.169922
6373.704869	0.090656	0.435399	21469.269531
6373.705796	0.090601	0.435399	21553.255859
6373.706659	0.090535	0.435399	21631.386719
6373.707714	0.090692	0.435399	21727.066406
6373.708728	0.090612	0.435399	21818.947266
6373.709613	0.090619	0.435399	21899.144531
6373.710589	0.090670	0.435399	21987.638672
6374.737466	1.555085	0.431842	835.080872
6374.738508	1.877281	0.431842	2791.208008
6374.739398	1.826243	0.431842	4416.563965
6374.740352	1.765942	0.431842	6101.272949
6374.741422	1.701757	0.431842	7922.152344
6374.742355	1.648180	0.431842	9459.904297
6374.743215	1.599595	0.431842	10835.555664
6374.744257	1.544399	0.431842	12444.820312
6374.745284	1.489867	0.431842	13974.914062
6374.746179	1.444753	0.431842	15267.968750
6374.747152	1.398794	0.431842	16628.996094
6374.748210	1.349868	0.431842	18057.156250
6374.749122	1.309171	0.431842	19251.121094
6374.750001	1.271320	0.431842	20368.611328
6374.751085	0.679263	0.431842	21104.931641
6374.752074	0.090560	0.431842	21194.496094
6374.752967	0.090648	0.431842	21275.445312
6374.753945	0.090685	0.431842	21364.134766
6374.754997	0.090703	0.431842	21459.554687
6374.755891	0.090608	0.431842	21540.558594
6374.756751	0.090608	0.431842	21618.480469
6374.757842	0.090696	0.431842	21717.429687
6374.758803	0.090612	0.431842	21804.507812
6374.759678	0.090608	0.431842	21883.789062
6374.760690	0.090740	0.431842	21975.617187
6375.775679	1.442699	0.393589	620.360535
6375.776547	1.884555	0.393589	2256.153809
6375.777644	1.830729	0.393589	4264.462891
6375.778644	1.767015	0.393589	6031.478516
6375.779538	1.713402	0.393589	7563.259766
6375.780514	1.657771	0.393589	9181.244141
6375.781554	1.601136	0.393589	10846.425781
6375.782453	1.552756	0.393589	12242.353516
6375.783322	1.503230	0.393589	13548.660156
6375.784418	1.450063	0.393589	15137.929687
6375.785387	1.403558	0.393589	16497.978516
6375.786253	1.362766	0.393589	17678.134766
6375.787325	1.315159	0.393589	19087.984375
6375.788364	1.271814	0.393589	20409.398437
6375.789250	0.891885	0.393589	21199.609375
6375.790187	0.097035	0.393589	21290.531250
6375.791272	0.090677	0.393589	21388.916016
6375.792201	0.090593	0.393589	21473.078125
6375.793059	0.090656	0.393589	21550.861328
6375.794086	0.090743	0.393589	21644.054687
6375.795109	0.090582	0.393589	21736.720703
6375.796003	0.090659	0.393589	21817.769531
6375.796959	0.090718	0.393589	21904.496094
6375.798009	0.090637	0.393589	21999.666016
6375.798941	0.090707	0.393589	22084.205078
6376.829368	1.429358	0.427620	600.330322
6376.830363	1.881255	0.427620	2472.178711
6376.831418	1.827510	0.427620	4400.201660
6376.832317	1.768912	0.427620	5990.454102
6376.833180	1.714684	0.427620	7470.226562
6376.834270	1.654365	0.427620	9273.484375
6376.835240	1.600972	0.427620	10826.426758
6376.836111	1.555148	0.427620	12180.960937
6376.837134	1.500377	0.427620	13715.846680
6376.838185	1.447079	0.427620	15236.726562
6376.839071	1.403826	0.427620	16480.515625
6376.839938	1.360554	0.427620	17660.115234
6376.841047	1.313632	0.427620	19116.933594
6376.841985	1.274590	0.427620	20312.498047
6376.842860	0.993984	0.427620	21182.234375
6376.843896	0.096533	0.427620	21282.242187
6376.844927	0.090560	0.427620	21375.609375
6376.845816	0.090619	0.427620	21456.169922
6376.846728	0.090586	0.427620	21538.785156
6376.847795	0.090608	0.427620	21635.462891
6376.848732	0.090604	0.427620	21720.359375
6376.849603	0.090645	0.427620	21799.310547
6376.850651	0.090667	0.427620	21894.328125
6376.851672	0.090549	0.427620	21986.779297
6376.852567	0.090641	0.427620	22067.902344
6377.865666	1.436063	0.422879	613.199036
6377.866534	1.885232	0.422879	2249.580322
6377.867548	1.836372	0.422879	4111.661621
6377.868520	1.774618	0.422879	5836.590332
6377.869398	1.720899	0.422879	7347.539062
6377.870293	1.667435	0.422879	8839.893555
6377.871399	1.609164	0.422879	10619.628906
6377.872299	1.561029	0.422879	12024.554687
6377.873166	1.513535	0.422879	13336.790039
6377.874233	1.458376	0.422879	14892.877930
6377.875214	1.410890	0.422879	16276.960937
6377.876084	1.369563	0.422879	17468.480469
6377.877109	1.323424	0.422879	18824.990234
6377.878148	1.280544	0.422879	20155.476562
6377.879035	1.123693	0.422879	21152.191406
6377.879963	0.137139	0.422879	21279.457031
6377.881025	0.090597	0.422879	21375.671875
6377.881962	0.090502	0.422879	21460.472656
6377.882819	0.090604	0.422879	21538.121094
6377.883864	0.090674	0.422879	21632.875000
6377.884894	0.090608	0.422879	21726.201172
6377.885770	0.090586	0.422879	21805.554687
6377.886723	0.090718	0.422879	21892.007812
6377.887770	0.090648	0.422879	21986.916016
6377.888701	0.090531	0.422879	22071.201172
6378.920994	1.530992	0.417884	789.992065
6378.921930	1.881892	0.417884	2551.443115
6378.922807	1.835153	0.417884	4160.872070
6378.923792	1.773618	0.417884	5907.885742
6378.924827	1.710220	0.417884	7677.962891
6378.925719	1.658536	0.417884	9157.376953
6378.926580	1.610215	0.417884	10543.771484
6378.927624	1.554024	0.417884	12166.171875
6378.928576	1.502948	0.417884	13596.978516
6378.929458	1.458391	0.417884	14883.279297
6378.930408	1.412769	0.417884	16225.409180
6378.931439	1.364755	0.417884	17632.470703
6378.932338	1.324351	0.417884	18823.062500
6378.933293	1.283800	0.417884	20049.091797
6378.934336	1.008146	0.417884	21100.587891
6378.935283	0.103011	0.417884	21198.140625
6378.936144	0.090553	0.417884	21276.107422
6378.937200	0.090630	0.417884	21371.812500
6378.938205	0.090494	0.417884	21462.759766
6378.939086	0.090630	0.417884	21542.605469
6378.940064	0.090674	0.417884	21631.285156
6378.941099	0.090593	0.417884	21725.048828
6378.942009	0.090546	0.417884	21807.445312
6378.942867	0.090608	0.417884	21885.187500
6378.943931	0.090740	0.417884	21981.734375
6379.955149	1.452444	0.419693	637.622864
6379.956016	1.884639	0.419693	2271.604492
6379.957073	1.833142	0.419693	4209.235840
6379.958094	1.768162	0.419693	6014.528809
6379.958988	1.713959	0.419693	7546.807617
6379.959951	1.659130	0.419693	9144.549805
6379.961008	1.601027	0.419693	10836.834961
6379.961932	1.552163	0.419693	12271.033203
6379.962799	1.503523	0.419693	13574.587891
6379.963885	1.449364	0.419693	15148.597656
6379.964879	1.401346	0.419693	16541.535156
6379.965762	1.360587	0.419693	17742.933594
6379.966762	1.316832	0.419693	19059.765625
6379.967795	1.272565	0.419693	20374.324219
6379.968684	0.893544	0.419693	21168.683594
6379.969611	0.095962	0.419693	21257.640625
6379.970467	0.090542	0.419693	21335.144531
6379.971488	0.090549	0.419693	21427.595703
6379.972381	0.090586	0.419693	21508.488281
6379.973254	0.090626	0.419693	21587.605469
6379.974217	0.090560	0.419693	21674.814453
6379.975158	0.090579	0.419693	21760.048828
6379.976079	0.090472	0.419693	21843.373047
6379.976945	0.090604	0.419693	21921.835937
6379.977975	0.090634	0.419693	22015.189453
6381.012992	1.462866	0.407551	722.655884
6381.014065	1.876813	0.407551	2736.475830
6381.015012	1.823434	0.407551	4463.267578
6381.015882	1.767616	0.407551	6001.093262
6381.016942	1.704130	0.407551	7807.470703
6381.017952	1.646503	0.407551	9470.438477
6381.018848	1.597603	0.407551	10901.890625
6381.019811	1.547315	0.407551	12391.954102
6381.020865	1.490489	0.407551	13962.929687
6381.021792	1.442834	0.407551	15300.437500
6381.022720	1.399376	0.407551	16599.058594
6381.023586	1.357841	0.407551	17774.949219
6381.024629	1.312892	0.407551	19144.294922
6381.025509	1.275216	0.407551	20266.484375
6381.026390	1.018799	0.407551	21164.046875
6381.027366	0.109098	0.407551	21270.527344
6381.028315	0.090494	0.407551	21356.406250
6381.029223	0.090527	0.407551	21438.605469
6381.030096	0.090531	0.407551	21517.638672
6381.031134	0.090505	0.407551	21611.583984
6381.032025	0.090535	0.407551	21692.250000
6381.032899	0.090615	0.407551	21771.447266
6381.033789	0.090505	0.407551	21851.996094
6381.034816	0.090560	0.407551	21945.001953
6381.035700	0.090615	0.407551	22025.105469
6382.045123	1.448093	0.429546	621.231995
6382.045990	1.883331	0.429546	2254.080078
6382.047102	1.829476	0.429546	4288.458008
6382.048085	1.767462	0.429546	6025.873047
6382.048956	1.714534	0.429546	7519.231934
6382.050019	1.653417	0.429546	9276.814453
6382.051061	1.597160	0.429546	10941.054687
6382.051954	1.550197	0.429546	12325.379883
6382.052892	1.498993	0.429546	13731.435547
6382.053967	1.443864	0.429546	15283.588867
6382.054920	1.398794	0.429546	16616.638672
6382.055789	1.358324	0.429546	17797.021484
6382.056843	1.312112	0.429546	19179.988281
6382.057867	1.268280	0.429546	20478.707031
6382.058772	0.792609	0.429546	21196.017578
6382.059732	0.093083	0.429546	21285.376953
6382.060782	0.090641	0.429546	21380.550781
6382.061687	0.090590	0.429546	21462.535156
6382.062548	0.090623	0.429546	21540.560547
6382.063616	0.090696	0.429546	21637.423828
6382.064616	0.090557	0.429546	21727.980469
6382.065492	0.090623	0.429546	21807.365234
6382.066489	0.090714	0.429546	21897.806641
6382.067531	0.090608	0.429546	21992.220703
6382.068437	0.090524	0.429546	22074.234375
6383.105468	1.431921	0.439447	607.134644
6383.106488	1.880416	0.439447	2525.159180
6383.107553	1.825371	0.439447	4469.179199
6383.108435	1.767495	0.439447	6028.109863
6383.109303	1.712388	0.439447	7514.462402
6383.110399	1.652395	0.439447	9325.487305
6383.111365	1.599485	0.439447	10870.589844
6383.112228	1.554001	0.439447	12211.693359
6383.113247	1.499656	0.439447	13739.842773
6383.114295	1.445548	0.439447	15254.777344
6383.115190	1.402408	0.439447	16509.933594
6383.116128	1.358954	0.439447	17784.632812
6383.117189	1.311537	0.439447	19176.173828
6383.118134	1.271631	0.439447	20377.865234
6383.119007	0.928293	0.439447	21188.265625
6383.120050	0.093160	0.439447	21285.431641
6383.121065	0.090590	0.439447	21377.380859
6383.121953	0.090476	0.439447	21457.722656
6383.122909	0.090667	0.439447	21544.400391
6383.123961	0.090623	0.439447	21639.734375
6383.124890	0.090498	0.439447	21723.806641
6383.125753	0.090579	0.439447	21801.976562
6383.126830	0.090703	0.439447	21899.664062
6383.127834	0.090494	0.439447	21990.519531
6383.128716	0.090553	0.439447	22070.386719
6384.135115	1.437825	0.423975	626.891602
6384.135976	1.884910	0.423975	2249.798828
6384.137030	1.832893	0.423975	4181.667969
6384.138000	1.771868	0.423975	5900.379883
6384.138877	1.718452	0.423975	7407.462402
6384.139812	1.664257	0.423975	8963.541992
6384.140863	1.606630	0.423975	10652.109375
6384.141766	1.559275	0.423975	12060.134766
6384.142633	1.513162	0.423975	13372.045898
6384.143678	1.457900	0.423975	14895.551758
6384.144636	1.411384	0.423975	16247.658203
6384.145506	1.370739	0.423975	17440.201172
6384.146542	1.324380	0.423975	18812.257812
6384.147562	1.280614	0.423975	20118.484375
6384.148451	1.143933	0.423975	21135.441406
6384.149406	0.145408	0.423975	21274.306641
6384.150449	0.090582	0.423975	21368.783203
6384.151375	0.090586	0.423975	21452.666016
6384.152236	0.090670	0.423975	21530.732422
6384.153294	0.090670	0.423975	21626.662109
6384.154308	0.090575	0.423975	21718.505859
6384.155180	0.090688	0.423975	21797.585937
6384.156133	0.090692	0.423975	21884.015625
6384.157173	0.090619	0.423975	21978.259766
6384.158104	0.090586	0.423975	22062.595703
6385.197555	1.499154	0.432982	709.099854
6385.198433	1.884166	0.432982	2363.397949
6385.199296	1.841213	0.432982	3952.364990
6385.200390	1.773212	0.432982	5892.258301
6385.201313	1.716544	0.432982	7476.628418
6385.202192	1.665842	0.432982	8940.904297
6385.203168	1.612932	0.432982	10515.125977
6385.204196	1.557711	0.432982	12116.453125
6385.205069	1.509781	0.432982	13434.492187
6385.206028	1.460467	0.432982	14835.080078
6385.207084	1.409289	0.432982	16323.290039
6385.208010	1.366095	0.432982	17588.292969
6385.208883	1.325321	0.432982	18745.298828
6385.209945	1.281354	0.432982	20106.095703
6385.210941	1.032198	0.432982	21134.166016
6385.211837	0.110460	0.432982	21233.138672
6385.212806	0.090604	0.432982	21320.933594
6385.213850	0.090670	0.432982	21415.593750
6385.214765	0.090575	0.432982	21498.470703
6385.215633	0.090656	0.432982	21577.160156
6385.216722	0.090725	0.432982	21675.958984
6385.217718	0.090601	0.432982	21766.197266
6385.218615	0.090571	0.432982	21847.439453
6385.219622	0.090729	0.432982	21938.802734
6385.220670	0.090685	0.432982	22033.839844
6386.226702	1.508709	0.435552	763.406555
6386.227664	1.881493	0.435552	2573.402832
6386.228571	1.831659	0.435552	4234.717773
6386.229464	1.775076	0.435552	5819.860352
6386.230471	1.715021	0.435552	7546.886230
6386.231397	1.659364	0.435552	9083.457031
6386.232333	1.608933	0.435552	10589.417969
6386.233202	1.561366	0.435552	11946.245117
6386.234250	1.507760	0.435552	13526.377930
6386.235140	1.460676	0.435552	14826.379883
6386.236014	1.418104	0.435552	16065.802734
6386.237027	1.371995	0.435552	17455.632812
6386.237937	1.329163	0.435552	18665.169922
6386.238854	1.289890	0.435552	19848.000000
6386.239738	1.235830	0.435552	20940.474609
6386.240771	0.195157	0.435552	21142.072266
6386.241665	0.090597	0.435552	21223.066406
6386.242533	0.090677	0.435552	21301.775391
6386.243617	0.090754	0.435552	21400.152344
6386.244556	0.090593	0.435552	21485.218750
6386.245435	0.090571	0.435552	21564.830078
6386.246403	0.090725	0.435552	21652.652344
6386.247431	0.090582	0.435552	21745.771484
6386.248312	0.090659	0.435552	21825.642578
6386.249171	0.090758	0.435552	21903.603516
6387.288528	1.444519	0.438468	622.587708
6387.289403	1.884837	0.438468	2271.819580
6387.290438	1.835292	0.438468	4171.346680
6387.291342	1.775281	0.438468	5776.200684
6387.292271	1.719529	0.438468	7373.643066
6387.293136	1.666853	0.438468	8815.470703
6387.294200	1.610266	0.438468	10528.793945
6387.295093	1.563743	0.438468	11925.215820
6387.295957	1.515875	0.438468	13234.931641
6387.297068	1.459768	0.438468	14856.734375
6387.297958	1.415262	0.438468	16116.318359
6387.298828	1.374748	0.438468	17312.349609
6387.299827	1.329785	0.438468	18640.804687
6387.300835	1.286162	0.438468	19937.255859
6387.301733	1.233724	0.438468	21045.140625
6387.302600	0.228395	0.438468	21243.158203
6387.303705	0.090568	0.438468	21343.236328
6387.304610	0.090568	0.438468	21425.199219
6387.305489	0.090575	0.438468	21504.814453
6387.306460	0.090754	0.438468	21592.937500
6387.307450	0.090586	0.438468	21682.617187
6387.308342	0.090626	0.438468	21763.455078
6387.309343	0.090714	0.438468	21854.259766
6387.310372	0.090615	0.438468	21947.501953
6387.311265	0.090586	0.438468	22028.394531
6388.316687	1.515106	0.439472	759.068237
6388.317613	1.882346	0.439472	2502.120605
6388.318485	1.836156	0.439472	4103.248535
6388.319526	1.770040	0.439472	5945.860352
6388.320556	1.707905	0.439472	7705.002930
6388.321448	1.656500	0.439472	9182.601562
6388.322415	1.604638	0.439472	10734.286133
6388.323471	1.547501	0.439472	12368.447266
6388.324403	1.497316	0.439472	13763.945312
6388.325272	1.452202	0.439472	15025.909180
6388.326357	1.400749	0.439472	16545.722656
6388.327356	1.353790	0.439472	17898.160156
6388.328256	1.314291	0.439472	19081.021484
6388.329241	1.273088	0.439472	20335.013672
6388.330321	0.715898	0.439472	21108.183594
6388.331223	0.091293	0.439472	21190.529297
6388.332081	0.090553	0.439472	21268.224609
6388.333194	0.090656	0.439472	21369.125000
6388.334152	0.090553	0.439472	21455.875000
6388.335012	0.090590	0.439472	21533.781250
6388.336068	0.090685	0.439472	21629.544922
6388.337091	0.090630	0.439472	21722.259766
6388.337973	0.090593	0.439472	21802.162109
6388.338880	0.090677	0.439472	21884.406250
6388.339954	0.090718	0.439472	21981.837891
6389.380124	1.517567	0.450425	770.924072
6389.381021	1.882921	0.450425	2459.904297
6389.381882	1.836581	0.450425	4041.200195
6389.382974	1.769403	0.450425	5973.388672
6389.383968	1.708707	0.450425	7671.843750
6389.384851	1.658324	0.450425	9136.143555
6389.385873	1.602920	0.450425	10774.328125
6389.386938	1.547681	0.450425	12422.608398
6389.387824	1.499099	0.450425	13750.810547
6389.388715	1.451448	0.450425	15044.050781
6389.389815	1.400255	0.450425	16584.332031
6389.390773	1.356021	0.450425	17883.400391
6389.391636	1.316393	0.450425	19019.447266
6389.392659	1.273081	0.450425	20321.808594
6389.393702	0.759569	0.450425	21114.039062
6389.394592	0.091930	0.450425	21195.857422
6389.395522	0.090542	0.450425	21280.060547
6389.396581	0.090663	0.450425	21376.072266
6389.397522	0.090571	0.450425	21461.300781
6389.398387	0.090571	0.450425	21539.644531
6389.399428	0.090710	0.450425	21634.074219
6389.400442	0.090586	0.450425	21725.927734
6389.401330	0.090586	0.450425	21806.367187
6389.402280	0.090762	0.450425	21892.589844
6389.403332	0.090710	0.450425	21988.017578
6390.407639	1.474420	0.434859	663.489075
6390.408506	1.883287	0.434859	2296.299316
6390.409611	1.829945	0.434859	4318.388672
6390.410574	1.768422	0.434859	6021.378906
6390.411438	1.715548	0.434859	7503.612305
6390.412518	1.653680	0.434859	9289.586914
6390.413559	1.597075	0.434859	10952.142578
6390.414433	1.550200	0.434859	12307.017578
6390.415307	1.502457	0.434859	13620.165039
6390.416240	1.454696	0.434859	14977.396484
6390.417236	1.406744	0.434859	16378.513672
6390.418148	1.364253	0.434859	17622.712891
6390.419048	1.323398	0.434859	18813.771484
6390.420044	1.282800	0.434859	20091.441406
6390.420963	1.116603	0.434859	21117.599609
6390.421896	0.125164	0.434859	21234.376953
6390.422758	0.090571	0.434859	21312.449219
6390.423801	0.090575	0.434859	21406.917969
6390.424682	0.090608	0.434859	21486.744141
6390.425550	0.090630	0.434859	21565.410156
6390.426538	0.090725	0.434859	21655.046875
6390.427455	0.090615	0.434859	21738.140625
6390.428328	0.090685	0.434859	21817.308594
6390.429275	0.090641	0.434859	21903.144531
6390.430302	0.090560	0.434859	21996.150391
6391.471038	1.438656	0.454562	609.990112
6391.471984	1.881984	0.454562	2390.346680
6391.473057	1.827806	0.454562	4351.583008
6391.474003	1.767590	0.454562	6023.723633
6391.474874	1.714036	0.454562	7516.648437
6391.475922	1.654310	0.454562	9250.365234
6391.476945	1.598914	0.454562	10886.053711
6391.477846	1.550683	0.454562	12283.219727
6391.478724	1.503106	0.454562	13602.946289
6391.479717	1.453363	0.454562	15046.135742
6391.480673	1.406404	0.454562	16390.658203
6391.481599	1.363942	0.454562	17653.667969
6391.482465	1.324373	0.454562	18800.574219
6391.483515	1.280771	0.454562	20145.384766
6391.484401	1.119587	0.454562	21137.339844
6391.485280	0.135527	0.454562	21256.468750
6391.486229	0.090498	0.454562	21342.351562
6391.487189	0.090498	0.454562	21429.230469
6391.488097	0.090593	0.454562	21511.488281
6391.488972	0.090608	0.454562	21590.769531
6391.490000	0.090674	0.454562	21683.982422
6391.490903	0.090626	0.454562	21765.818359
6391.491763	0.090634	0.454562	21843.763672
6391.492829	0.090776	0.454562	21940.531250
6391.493791	0.090546	0.454562	22027.636719
6392.498720	1.502655	0.429449	791.899170
6392.499773	1.876597	0.429449	2767.955566
6392.500693	1.823884	0.429449	4445.929199
6392.501564	1.766462	0.429449	5984.518066
6392.502665	1.701907	0.429449	7858.317383
6392.503651	1.645386	0.429449	9480.667969
6392.504549	1.597075	0.429449	10914.841797
6392.505548	1.545850	0.429449	12459.145508
6392.506594	1.489801	0.429449	14017.477539
6392.507491	1.442633	0.429449	15311.519531
6392.508368	1.399193	0.429449	16538.611328
6392.509468	1.349820	0.429449	18023.414062
6392.510424	1.308289	0.429449	19274.138672
6392.511289	1.271517	0.429449	20374.001953
6392.512337	0.703096	0.429449	21110.845703
6392.513371	0.090718	0.429449	21204.648437
6392.514247	0.090593	0.429449	21284.007812
6392.515178	0.090648	0.429449	21368.400391
6392.516251	0.090703	0.429449	21465.724609
6392.517184	0.090619	0.429449	21550.271484
6392.518048	0.090667	0.429449	21628.607422
6392.519075	0.090718	0.429449	21721.775391
6392.520099	0.090623	0.429449	21814.572266
6392.520986	0.090663	0.429449	21894.990234
6392.521937	0.090648	0.429449	21981.197266
6393.561527	1.440403	0.449579	603.528809
6393.562636	1.878150	0.449579	2686.396729
6393.563613	1.823866	0.449579	4468.313477
6393.564486	1.768209	0.449579	6011.959961
6393.565579	1.702636	0.449579	7872.940430
6393.566611	1.643972	0.449579	9569.519531
6393.567505	1.595145	0.449579	10995.579102
6393.568449	1.547000	0.449579	12455.946289
6393.569505	1.491705	0.449579	14031.187500
6393.570446	1.444054	0.449579	15390.041992
6393.571314	1.399380	0.449579	16604.703125
6393.572381	1.350271	0.449579	18045.441406
6393.573406	1.305450	0.449579	19383.527344
6393.574284	1.268785	0.449579	20497.521484
6393.575267	0.689619	0.449579	21175.417969
6393.576309	0.090699	0.449579	21269.927734
6393.577207	0.090692	0.449579	21351.369141
6393.578071	0.090615	0.449579	21429.660156
6393.579124	0.090721	0.449579	21525.189453
6393.580124	0.090659	0.449579	21615.847656
6393.581020	0.090696	0.449579	21697.111328
6393.581986	0.090718	0.449579	21784.744141
6393.583044	0.090608	0.449579	21880.607422
6393.583945	0.090707	0.449579	21962.333984
6393.584804	0.090652	0.449579	22040.203125
6394.589222	1.530601	0.422657	791.320496
6394.590187	1.880665	0.422657	2606.162598
6394.591050	1.833406	0.422657	4188.391602
6394.592119	1.765796	0.422657	6076.027344
6394.593158	1.703654	0.422657	7846.123535
6394.594046	1.652095	0.422657	9313.183594
6394.594996	1.600686	0.422657	10833.834961
6394.596056	1.545593	0.422657	12472.164062
6394.597005	1.496261	0.422657	13892.115234
6394.597868	1.451352	0.422657	15144.632812
6394.598925	1.398585	0.422657	16622.937500
6394.599957	1.351831	0.422657	18018.027344
6394.600830	1.311647	0.422657	19163.095703
6394.601788	1.271591	0.422657	20381.279297
6394.602853	0.685225	0.422657	21111.042969
6394.603771	0.090956	0.422657	21194.541016
6394.604640	0.090553	0.422657	21273.232422
6394.605713	0.090754	0.422657	21370.611328
6394.606709	0.090564	0.422657	21460.812500
6394.607592	0.090725	0.422657	21540.921875
6394.608563	0.090780	0.422657	21629.068359
6394.609621	0.090674	0.422657	21725.001953
6394.610528	0.090604	0.422657	21807.179687
6394.611387	0.090659	0.422657	21885.056641
6394.612472	0.090787	0.422657	21983.560547
6395.652117	1.516399	0.439302	761.232239
6395.653158	1.878040	0.439302	2716.271484
6395.654044	1.827971	0.439302	4335.854004
6395.655028	1.766927	0.439302	6074.510742
6395.656075	1.703115	0.439302	7857.672363
6395.656999	1.649828	0.439302	9382.113281
6395.657862	1.601173	0.439302	10763.925781
6395.658943	1.546816	0.439302	12436.034180
6395.659948	1.494170	0.439302	13937.674805
6395.660830	1.448243	0.439302	15215.025391
6395.661790	1.400512	0.439302	16559.515625
6395.662844	1.352362	0.439302	17984.904297
6395.663746	1.311800	0.439302	19168.148437
6395.664614	1.273337	0.439302	20273.406250
6395.665715	0.739567	0.439302	21087.669922
6395.666703	0.090901	0.439302	21177.480469
6395.667591	0.090597	0.439302	21257.929687
6395.668562	0.090710	0.439302	21346.009766
6395.669605	0.090667	0.439302	21440.574219
6395.670500	0.090637	0.439302	21521.695312
6395.671367	0.090667	0.439302	21600.302734
6395.672469	0.090791	0.439302	21700.353516
6395.673428	0.090659	0.439302	21787.294922
6395.674294	0.090549	0.439302	21865.710937
6395.675346	0.090747	0.439302	21961.177734
6396.681146	1.443830	0.471110	615.071777
6396.682233	1.878497	0.471110	2656.998535
6396.683222	1.823002	0.471110	4459.947266
6396.684124	1.766298	0.471110	6053.147461
6396.685107	1.707385	0.471110	7731.506836
6396.686171	1.646982	0.471110	9483.896484
6396.687072	1.597141	0.471110	10922.920898
6396.687937	1.550207	0.471110	12263.850586
6396.689055	1.493053	0.471110	13933.083984
6396.690018	1.443406	0.471110	15323.083984
6396.690886	1.401211	0.471110	16539.335937
6396.691941	1.353212	0.471110	17966.974609
6396.692971	1.307164	0.471110	19313.353516
6396.693856	1.269818	0.471110	20437.142578
6396.694807	0.761151	0.471110	21160.998047
6396.695868	0.091238	0.471110	21257.800781
6396.696800	0.090681	0.471110	21342.316406
6396.697659	0.090670	0.471110	21420.201172
6396.698695	0.090696	0.471110	21514.162109
6396.699711	0.090652	0.471110	21606.263672
6396.700579	0.090568	0.471110	21684.876953
6396.701542	0.090692	0.471110	21772.212891
6396.702593	0.090703	0.471110	21867.541016
6396.703513	0.090626	0.471110	21950.917969
6396.704380	0.090623	0.471110	22029.488281
6397.743057	1.475980	0.436539	661.239136
6397.743937	1.884316	0.436539	2319.437500
6397.744938	1.835727	0.436539	4157.000977
6397.745986	1.769022	0.436539	6010.936523
6397.746885	1.713695	0.436539	7551.548340
6397.747749	1.661752	0.436539	8987.301758
6397.748848	1.603729	0.436539	10749.799805
6397.749842	1.551727	0.436539	12292.216797
6397.750726	1.505607	0.436539	13623.172852
6397.751737	1.452557	0.436539	15091.708008
6397.752788	1.401753	0.436539	16564.949219
6397.753664	1.360316	0.436539	17756.585937
6397.754555	1.318956	0.436539	18931.775391
6397.755646	1.274308	0.436539	20322.044922
6397.756602	0.886469	0.436539	21169.509766
6397.757480	0.096207	0.436539	21253.980469
6397.758502	0.090714	0.436539	21346.689453
6397.759540	0.090630	0.436539	21440.763672
6397.760423	0.090670	0.436539	21520.826172
6397.761368	0.090681	0.436539	21606.519531
6397.762418	0.090729	0.436539	21701.785156
6397.763356	0.090531	0.436539	21786.703125
6397.764220	0.090645	0.436539	21865.019531
6397.765270	0.090729	0.436539	21960.285156
6397.766285	0.090663	0.436539	22052.308594
6398.772248	1.519395	0.458465	770.333008
6398.773190	1.881533	0.458465	2542.737305
6398.774061	1.834753	0.458465	4140.807617
6398.775092	1.769352	0.458465	5965.009277
6398.776126	1.707177	0.458465	7730.229980
6398.777027	1.655193	0.458465	9221.558594
6398.777986	1.603341	0.458465	10759.163086
6398.779053	1.547530	0.458465	12410.377930
6398.779991	1.497737	0.458465	13815.254883
6398.780858	1.450485	0.458465	15072.825195
6398.781939	1.399351	0.458465	16585.523437
6398.782935	1.353629	0.458465	17933.738281
6398.783829	1.313679	0.458465	19108.167969
6398.784814	1.272162	0.458465	20361.248047
6398.785864	0.723981	0.458465	21121.427734
6398.786772	0.091469	0.458465	21204.480469
6398.787626	0.090612	0.458465	21281.863281
6398.788713	0.090725	0.458465	21380.482422
6398.789697	0.090560	0.458465	21469.593750
6398.790575	0.090634	0.458465	21549.169922
6398.791572	0.090729	0.458465	21639.626953
6398.792632	0.090663	0.458465	21735.730469
6398.793507	0.090623	0.458465	21815.025391
6398.794375	0.090623	0.458465	21893.685547
6398.795483	0.090769	0.458465	21994.257812
6399.833545	1.438795	0.458280	621.559448
6399.834407	1.884584	0.458280	2246.070801
6399.835450	1.833512	0.458280	4158.423828
6399.836414	1.772626	0.458280	5867.235352
6399.837283	1.719346	0.458280	7361.346680
6399.838315	1.659800	0.458280	9074.259766
6399.839353	1.603019	0.458280	10738.193359
6399.840250	1.556151	0.458280	12134.060547
6399.841212	1.504827	0.458280	13581.704102
6399.842268	1.449379	0.458280	15112.248047
6399.843203	1.404752	0.458280	16425.691406
6399.844069	1.363491	0.458280	17606.474609
6399.845159	1.315778	0.458280	19040.671875
6399.846155	1.273444	0.458280	20309.021484
6399.847050	0.964819	0.458280	21172.535156
6399.848026	0.101503	0.458280	21271.601562
6399.849066	0.090626	0.458280	21365.853516
6399.849966	0.090604	0.458280	21447.396484
6399.850826	0.090652	0.458280	21525.357422
6399.851903	0.090732	0.458280	21623.076172
6399.852898	0.090553	0.458280	21713.175781
6399.853780	0.090615	0.458280	21793.097656
6399.854776	0.090623	0.458280	21883.357422
6399.855830	0.090714	0.458280	21978.970703
6399.856719	0.090557	0.458280	22059.474609
6400.863172	1.447852	0.448354	619.680481
6400.864044	1.883258	0.448354	2261.881348
6400.865116	1.831512	0.448354	4225.262695
6400.866115	1.767513	0.448354	5991.008789
6400.867010	1.713860	0.448354	7524.913086
6400.867999	1.656921	0.448354	9163.608398
6400.869066	1.599144	0.448354	10869.895508
6400.869971	1.551372	0.448354	12273.886719
6400.870846	1.502380	0.448354	13588.469727
6400.871951	1.447222	0.448354	15187.649414
6400.872905	1.401262	0.448354	16524.453125
6400.873816	1.359587	0.448354	17763.037109
6400.874692	1.319949	0.448354	18919.312500
6400.875772	1.275622	0.448354	20296.984375
6400.876669	0.979735	0.448354	21175.806641
6400.877548	0.103195	0.448354	21266.515625
6400.878435	0.090670	0.448354	21346.939453
6400.879457	0.090685	0.448354	21439.619141
6400.880342	0.090608	0.448354	21519.806641
6400.881207	0.090645	0.448354	21598.214844
6400.882197	0.090623	0.448354	21687.931641
6400.883123	0.090626	0.448354	21771.851562
6400.884047	0.090549	0.448354	21855.519531
6400.884913	0.090718	0.448354	21934.082031
6400.885945	0.090612	0.448354	22027.593750
6401.922538	1.491735	0.423258	696.640076
6401.923417	1.884214	0.423258	2352.864014
6401.924400	1.836244	0.423258	4157.891602
6401.925442	1.768704	0.423258	6000.880859
6401.926369	1.712443	0.423258	7588.315430
6401.927233	1.660810	0.423258	9023.255859
6401.928313	1.603586	0.423258	10755.128906
6401.929328	1.550599	0.423258	12328.987305
6401.930212	1.504325	0.423258	13658.810547
6401.931222	1.451631	0.423258	15124.958008
6401.932276	1.400680	0.423258	16601.275391
6401.933166	1.358434	0.423258	17810.281250
6401.934035	1.317286	0.423258	18955.003906
6401.935154	1.271803	0.423258	20378.152344
6401.936131	0.811970	0.423258	21171.447266
6401.936997	0.093560	0.423258	21252.470703
6401.938035	0.090754	0.423258	21346.673828
6401.939074	0.090652	0.423258	21440.861328
6401.939965	0.090557	0.423258	21521.546875
6401.940837	0.090626	0.423258	21600.572266
6401.941759	0.090641	0.423258	21684.142578
6401.942746	0.090582	0.423258	21773.546875
6401.943662	0.090568	0.423258	21856.505859
6401.944534	0.090721	0.423258	21935.615234
6401.945536	0.090688	0.423258	22026.484375
6402.955297	1.531516	0.448277	781.073181
6402.956219	1.881735	0.448277	2516.032715
6402.957085	1.835273	0.448277	4105.379395
6402.958157	1.768440	0.448277	6001.146973
6402.959172	1.707012	0.448277	7733.763672
6402.960049	1.656486	0.448277	9186.501953
6402.961035	1.603744	0.448277	10767.792969
6402.962098	1.548171	0.448277	12413.499023
6402.963009	1.499828	0.448277	13779.841797
6402.963873	1.451807	0.448277	15034.203125
6402.964952	1.400933	0.448277	16545.808594
6402.965953	1.354226	0.448277	17901.388672
6402.966847	1.314617	0.448277	19076.656250
6402.967851	1.272594	0.448277	20354.339844
6402.968915	0.719352	0.448277	21119.730469
6402.969801	0.091501	0.448277	21200.800781
6402.970695	0.090553	0.448277	21281.755859
6402.971783	0.090652	0.448277	21380.384766
6402.972743	0.090604	0.448277	21467.365234
6402.973611	0.090568	0.448277	21545.978516
6402.974635	0.090743	0.448277	21638.900391
6402.975658	0.090608	0.448277	21731.591797
6402.976553	0.090677	0.448277	21812.748047
6402.977481	0.090696	0.448277	21896.914062
6402.978542	0.090670	0.448277	21993.115234
6404.014089	1.463507	0.487751	737.607544
6404.015141	1.877157	0.487751	2712.376953
6404.016079	1.824672	0.487751	4423.918945
6404.016945	1.768279	0.487751	5955.248047
6404.018017	1.704803	0.487751	7782.797363
6404.019040	1.646147	0.487751	9466.806641
6404.019923	1.598152	0.487751	10877.974609
6404.020911	1.547977	0.487751	12407.375977
6404.021972	1.490852	0.487751	13989.169922
6404.022884	1.442926	0.487751	15305.118164
6404.023745	1.400372	0.487751	16510.837891
6404.024808	1.352659	0.487751	17948.714844
6404.025792	1.308479	0.487751	19236.257812
6404.026689	1.270990	0.487751	20376.335937
6404.027675	0.757775	0.487751	21123.501953
6404.028736	0.091084	0.487751	21220.142578
6404.029639	0.090579	0.487751	21301.935547
6404.030501	0.090776	0.487751	21380.185547
6404.031611	0.090677	0.487751	21480.837891
6404.032568	0.090568	0.487751	21567.511719
6404.033472	0.090601	0.487751	21649.414062
6404.034342	0.090685	0.487751	21728.310547
6404.035451	0.090601	0.487751	21828.787109
6404.036341	0.090615	0.487751	21909.435547
6404.037212	0.090667	0.487751	21988.406250
6405.047833	1.519596	0.447577	765.876404
6405.048853	1.878604	0.447577	2682.052002
6405.049743	1.828854	0.447577	4309.731445
6405.050714	1.768429	0.447577	6026.875977
6405.051761	1.704580	0.447577	7811.571289
6405.052694	1.650568	0.447577	9351.550781
6405.053557	1.602209	0.447577	10734.257812
6405.054638	1.546132	0.447577	12405.625977
6405.055662	1.490786	0.447577	13932.191406
6405.056539	1.446266	0.447577	15200.566406
6405.057530	1.399373	0.447577	16587.343750
6405.058589	1.350015	0.447577	18017.009766
6405.059496	1.310160	0.447577	19205.324219
6405.060365	1.272125	0.447577	20310.800781
6405.061461	0.707908	0.447577	21086.667969
6405.062406	0.090795	0.447577	21172.468750
6405.063289	0.090608	0.447577	21252.474609
6405.064279	0.090729	0.447577	21342.296875
6405.065332	0.090623	0.447577	21437.722656
6405.066223	0.090560	0.447577	21518.412109
6405.067087	0.090688	0.447577	21596.767578
6405.068179	0.090696	0.447577	21695.806641
6405.069137	0.090612	0.447577	21782.613281
6405.069997	0.090586	0.447577	21860.517578
6405.071049	0.090721	0.447577	21955.957031
6406.102976	1.439139	0.470913	613.073364
6406.103943	1.881302	0.470913	2432.292969
6406.104986	1.828092	0.470913	4338.993164
6406.105913	1.768883	0.470913	5978.747559
6406.106782	1.715142	0.470913	7469.205566
6406.107865	1.653853	0.470913	9260.328125
6406.108872	1.598921	0.470913	10870.441406
6406.109749	1.552628	0.470913	12232.096680
6406.110729	1.500619	0.470913	13702.703125
6406.111776	1.446713	0.470913	15217.411133
6406.112684	1.402797	0.470913	16491.150391
6406.113544	1.361166	0.470913	17661.753906
6406.114628	1.314965	0.470913	19087.175781
6406.115627	1.271807	0.470913	20357.710937
6406.116516	0.926012	0.470913	21180.935547
6406.117526	0.096680	0.470913	21278.582031
6406.118583	0.090696	0.470913	21374.447266
6406.119469	0.090630	0.470913	21454.746094
6406.120351	0.090762	0.470913	21534.798828
6406.121449	0.090729	0.470913	21634.419922
6406.122406	0.090659	0.470913	21721.181641
6406.123276	0.090729	0.470913	21800.115234
6406.124291	0.090692	0.470913	21892.167969
6406.125325	0.090656	0.470913	21985.906250
6406.126217	0.090637	0.470913	22066.753906
6407.139288	1.478862	0.454892	656.614868
6407.140155	1.882624	0.454892	2288.850098
6407.141254	1.828264	0.454892	4298.112305
6407.142242	1.766429	0.454892	6043.344727
6407.143110	1.713655	0.454892	7530.796875
6407.144160	1.652706	0.454892	9266.138672
6407.145210	1.596361	0.454892	10942.317383
6407.146101	1.547937	0.454892	12321.529297
6407.147019	1.498279	0.454892	13696.949219
6407.148101	1.443644	0.454892	15258.971680
6407.149056	1.398589	0.454892	16594.625000
6407.149927	1.358298	0.454892	17777.703125
6407.150988	1.311808	0.454892	19169.531250
6407.152008	1.268573	0.454892	20463.476562
6407.152907	0.804404	0.454892	21186.636719
6407.153869	0.093523	0.454892	21276.605469
6407.154917	0.090736	0.454892	21371.697266
6407.155843	0.090667	0.454892	21455.654297
6407.156701	0.090780	0.454892	21533.542969
6407.157757	0.090725	0.454892	21629.349609
6407.158757	0.090677	0.454892	21720.027344
6407.159634	0.090648	0.454892	21799.525391
6407.160613	0.090652	0.454892	21888.273437
6407.161655	0.090718	0.454892	21982.800781
6407.162551	0.090623	0.454892	22063.998047
6408.192950	1.427457	0.437002	599.532043
6408.193942	1.880445	0.437002	2464.933838
6408.194992	1.826517	0.437002	4382.777344
6408.195903	1.768070	0.437002	5993.489258
6408.196781	1.712578	0.437002	7497.132812
6408.197893	1.650820	0.437002	9332.844727
6408.198858	1.598906	0.437002	10875.789062
6408.199731	1.553789	0.437002	12232.247070
6408.200762	1.500220	0.437002	13778.973633
6408.201787	1.448591	0.437002	15263.779297
6408.202685	1.402357	0.437002	16523.095703
6408.203613	1.359353	0.437002	17784.576172
6408.204666	1.312192	0.437002	19166.314453
6408.205607	1.272638	0.437002	20363.867187
6408.206474	0.950387	0.437002	21187.853516
6408.207533	0.094054	0.437002	21287.457031
6408.208554	0.090601	0.437002	21379.960937
6408.209434	0.090612	0.437002	21459.699219
6408.210378	0.090637	0.437002	21545.261719
6408.211460	0.090637	0.437002	21643.332031
6408.212371	0.090645	0.437002	21725.910156
6408.213236	0.090612	0.437002	21804.289062
6408.214278	0.090699	0.437002	21898.798828
6408.215290	0.090593	0.437002	21990.478516
6408.216177	0.090667	0.437002	22070.900391
6409.231374	1.510873	0.437413	752.414673
6409.232296	1.881614	0.437413	2487.262695
6409.233162	1.835189	0.437413	4076.536621
6409.234261	1.767426	0.437413	6018.937500
6409.235272	1.705851	0.437413	7743.552734
6409.236148	1.655131	0.437413	9193.447266
6409.237137	1.601451	0.437413	10777.283203
6409.238216	1.546110	0.437413	12445.535156
6409.239103	1.496100	0.437413	13772.576172
6409.239974	1.449708	0.437413	15035.272461
6409.241075	1.399112	0.437413	16575.695312
6409.242053	1.354190	0.437413	17900.091797
6409.242924	1.315492	0.437413	19045.884766
6409.243950	1.272151	0.437413	20351.111328
6409.245009	0.712540	0.437413	21105.691406
6409.245896	0.091399	0.437413	21186.761719
6409.246818	0.090656	0.437413	21270.345703
6409.247880	0.090743	0.437413	21366.714844
6409.248829	0.090516	0.437413	21452.615234
6409.249694	0.090564	0.437413	21530.953125
6409.250728	0.090732	0.437413	21624.769531
6409.251740	0.090652	0.437413	21716.509766
6409.252629	0.090601	0.437413	21797.052734
6409.253572	0.090659	0.437413	21882.544922
6409.254618	0.090626	0.437413	21977.339844
6410.282448	1.457739	0.454505	632.658813
6410.283313	1.884225	0.454505	2262.513184
6410.284358	1.833537	0.454505	4178.559570
6410.285316	1.772413	0.454505	5876.531738
6410.286194	1.718745	0.454505	7385.589844
6410.287089	1.664722	0.454505	8875.515625
6410.288190	1.607721	0.454505	10645.616211
6410.289066	1.559982	0.454505	12012.160156
6410.289977	1.510433	0.454505	13388.165039
6410.291076	1.453663	0.454505	14985.741211
6410.292037	1.407605	0.454505	16338.449219
6410.292909	1.367223	0.454505	17530.667969
6410.293931	1.320864	0.454505	18880.591797
6410.294966	1.277062	0.454505	20202.351562
6410.295859	1.066333	0.454505	21154.587891
6410.296816	0.118326	0.454505	21267.826172
6410.297888	0.090645	0.454505	21364.998047
6410.298826	0.090656	0.454505	21450.033203
6410.299689	0.090597	0.454505	21528.218750
6410.300750	0.090710	0.454505	21624.462891
6410.301752	0.090513	0.454505	21715.156250
6410.302639	0.090637	0.454505	21795.550781
6410.303602	0.090663	0.454505	21882.859375
6410.304645	0.090601	0.454505	21977.355469
6410.305542	0.090571	0.454505	22058.597656
6411.322820	1.442944	0.429135	623.351990
6411.323686	1.884382	0.429135	2255.227051
6411.324715	1.835391	0.429135	4143.844238
6411.325623	1.776434	0.429135	5756.846680
6411.326500	1.722828	0.429135	7267.767090
6411.327392	1.669259	0.429135	8756.746094
6411.328435	1.613035	0.429135	10439.141602
6411.329337	1.565248	0.429135	11850.995117
6411.330221	1.517889	0.429135	13192.809570
6411.331225	1.466294	0.429135	14664.968750
6411.332140	1.420653	0.429135	15964.866211
6411.333014	1.379788	0.429135	17170.800781
6411.334014	1.335395	0.429135	18506.195312
6411.335012	1.290769	0.429135	19794.382812
6411.335892	1.254884	0.429135	20898.681641
6411.336765	0.388956	0.429135	21238.240234
6411.337855	0.090542	0.429135	21336.931641
6411.338770	0.090527	0.429135	21419.763672
6411.339649	0.090590	0.429135	21499.392578
6411.340621	0.090740	0.429135	21587.591797
6411.341633	0.090571	0.429135	21679.250000
6411.342522	0.090601	0.429135	21759.792969
6411.343380	0.090634	0.429135	21837.556641
6411.344458	0.090623	0.429135	21935.248047
6411.345379	0.090579	0.429135	22018.671875
6411.346241	0.090597	0.429135	22096.765625
6412.372917	1.435078	0.464685	602.732849
6412.374018	1.878164	0.464685	2670.591553
6412.375020	1.822093	0.464685	4496.329102
6412.375903	1.766202	0.464685	6055.885742
6412.376919	1.705847	0.464685	7789.026367
6412.377969	1.646016	0.464685	9517.342773
6412.378855	1.597050	0.464685	10932.329102
6412.379744	1.549270	0.464685	12309.629883
6412.380837	1.494188	0.464685	13942.777344
6412.381790	1.443834	0.464685	15318.750977
6412.382662	1.400878	0.464685	16540.316406
6412.383695	1.352926	0.464685	17937.888672
6412.384728	1.308175	0.464685	19289.234375
6412.385621	1.270243	0.464685	20423.560547
6412.386567	0.778806	0.464685	21160.310547
6412.387628	0.091080	0.464685	21256.947266
6412.388558	0.090560	0.464685	21341.167969
6412.389425	0.090553	0.464685	21419.677734
6412.390488	0.090714	0.464685	21516.107422
6412.391488	0.090641	0.464685	21606.748047
6412.392378	0.090549	0.464685	21687.337891
6412.393333	0.090586	0.464685	21773.847656
6412.394382	0.090604	0.464685	21868.890625
6412.395303	0.090582	0.464685	21952.316406
6412.396162	0.090590	0.464685	22030.132812
6413.415365	1.456772	0.472894	629.325684
6413.416233	1.882493	0.472894	2263.329346
6413.417361	1.827894	0.472894	4325.194336
6413.418329	1.766660	0.472894	6035.321289
6413.419200	1.713702	0.472894	7527.956055
6413.420267	1.652783	0.472894	9291.475586
6413.421300	1.596570	0.472894	10940.732422
6413.422201	1.547783	0.472894	12335.285156
6413.423140	1.497356	0.472894	13741.302734
6413.424204	1.443505	0.472894	15277.191406
6413.425152	1.398435	0.472894	16602.908203
6413.426018	1.358075	0.472894	17779.001953
6413.427071	1.311376	0.472894	19159.880859
6413.428096	1.269349	0.472894	20460.964844
6413.428986	0.826428	0.472894	21196.486328
6413.429982	0.094083	0.472894	21290.193359
6413.431009	0.090612	0.472894	21383.251953
6413.431924	0.090582	0.472894	21466.134766
6413.432784	0.090612	0.472894	21544.060547
6413.433869	0.090612	0.472894	21642.375000
6413.434851	0.090604	0.472894	21731.347656
6413.435723	0.090564	0.472894	21810.320312
6413.436701	0.090718	0.472894	21899.042969
6413.437762	0.090718	0.472894	21995.294922
6413.438653	0.090637	0.472894	22076.052734
6414.462955	1.456838	0.466320	689.084534
6414.464033	1.876663	0.466320	2712.126709
6414.464989	1.823145	0.466320	4455.052734
6414.465855	1.767660	0.466320	5985.846191
6414.466927	1.703789	0.466320	7812.308105
6414.467946	1.645642	0.466320	9489.217773
6414.468834	1.596932	0.466320	10907.293945
6414.469810	1.545938	0.466320	12416.128906
6414.470856	1.489124	0.466320	13973.751953
6414.471779	1.442886	0.466320	15305.535156
6414.472642	1.400471	0.466320	16514.142578
6414.473716	1.352593	0.466320	17966.828125
6414.474715	1.307659	0.466320	19273.179687
6414.475596	1.271389	0.466320	20393.273437
6414.476572	0.749784	0.466320	21125.062500
6414.477650	0.090912	0.466320	21223.066406
6414.478537	0.090502	0.466320	21303.341797
6414.479402	0.090652	0.466320	21381.755859
6414.480484	0.090637	0.466320	21479.826172
6414.481471	0.090630	0.466320	21569.277344
6414.482356	0.090590	0.466320	21649.449219
6414.483339	0.090656	0.466320	21738.564453
6414.484411	0.090692	0.466320	21835.787109
6414.485300	0.090564	0.466320	21916.298828
6414.486179	0.090608	0.466320	21995.943359
6415.507462	1.498740	0.480758	746.372681
6415.508372	1.882375	0.480758	2459.334229
6415.509236	1.836259	0.480758	4045.861572
6415.510313	1.768883	0.480758	5950.948730
6415.511311	1.708400	0.480758	7655.931641
6415.512205	1.657482	0.480758	9137.720703
6415.513189	1.603502	0.480758	10715.566406
6415.514250	1.546970	0.480758	12356.901367
6415.515155	1.497784	0.480758	13712.396484
6415.516021	1.451547	0.480758	14969.435547
6415.517124	1.399801	0.480758	16513.416016
6415.518098	1.355658	0.480758	17833.826172
6415.518967	1.317590	0.480758	18978.812500
6415.520030	1.272389	0.480758	20331.361328
6415.521071	0.752937	0.480758	21115.167969
6415.521963	0.091758	0.480758	21197.015625
6415.522889	0.090637	0.480758	21280.945312
6415.523944	0.090597	0.480758	21376.525391
6415.524882	0.090491	0.480758	21461.406250
6415.525743	0.090553	0.480758	21539.373047
6415.526794	0.090685	0.480758	21634.683594
6415.527823	0.090516	0.480758	21727.824219
6415.528710	0.090652	0.480758	21808.232422
6415.529687	0.090696	0.480758	21896.841797
6415.530740	0.090641	0.480758	21992.287109
6416.553526	1.532772	0.459835	843.024719
6416.554531	1.877380	0.459835	2729.791992
6416.555422	1.827122	0.459835	4357.757324
6416.556284	1.770143	0.459835	5883.620605
6416.557390	1.706217	0.459835	7770.696289
6416.558298	1.653215	0.459835	9271.815430
6416.559171	1.605513	0.459835	10673.427734
6416.560161	1.554100	0.459835	12211.987305
6416.561172	1.499850	0.459835	13728.335937
6416.562065	1.452601	0.459835	15025.508789
6416.563047	1.406074	0.459835	16406.273437
6416.564106	1.357192	0.459835	17843.541016
6416.565016	1.316103	0.459835	19041.195312
6416.565882	1.277205	0.459835	20147.253906
6416.566996	0.836997	0.459835	21079.667969
6416.567967	0.092190	0.459835	21169.183594
6416.568831	0.090626	0.459835	21247.484375
6416.569924	0.090648	0.459835	21346.562500
6416.570965	0.090538	0.459835	21440.812500
6416.571858	0.090516	0.459835	21521.644531
6416.572790	0.090667	0.459835	21606.146484
6416.573844	0.090652	0.459835	21701.693359
6416.574785	0.090553	0.459835	21786.904297
6416.575644	0.090538	0.459835	21864.675781
6416.576689	0.090765	0.459835	21959.525391
6417.597897	1.435869	0.477793	626.039001
6417.598815	1.883481	0.477793	2355.074951
6417.599693	1.840393	0.477793	3970.939941
6417.600719	1.775914	0.477793	5793.028320
6417.601635	1.719342	0.477793	7367.945312
6417.602504	1.668384	0.477793	8817.770508
6417.603571	1.610076	0.477793	10535.721680
6417.604547	1.558806	0.477793	12057.116211
6417.605433	1.511810	0.477793	13396.580078
6417.606293	1.463236	0.477793	14654.962891
6417.607408	1.412369	0.477793	16229.754883
6417.608300	1.370054	0.477793	17451.843750
6417.609166	1.330737	0.477793	18604.261719
6417.610235	1.284866	0.477793	19977.783203
6417.611200	1.171967	0.477793	21108.730469
6417.612072	0.158177	0.477793	21246.662109
6417.612935	0.090465	0.477793	21324.734375
6417.614063	0.090604	0.477793	21426.935547
6417.614961	0.090502	0.477793	21508.207031
6417.615824	0.090575	0.477793	21586.373047
6417.616921	0.090659	0.477793	21685.826172
6417.617880	0.090520	0.477793	21772.634766
6417.618745	0.090597	0.477793	21851.001953
6417.619808	0.090732	0.477793	21947.451172
6417.620843	0.090641	0.477793	22041.263672
6418.644424	1.454008	0.459625	635.401306
6418.645298	1.884089	0.459625	2282.095459
6418.646164	1.844315	0.459625	3879.272461
6418.647256	1.775665	0.459625	5818.298828
6418.648150	1.719880	0.459625	7355.872070
6418.649020	1.669534	0.459625	8808.366211
6418.650023	1.614166	0.459625	10427.375000
6418.651022	1.558345	0.459625	11984.161133
6418.651900	1.511682	0.459625	13311.417969
6418.652769	1.465199	0.459625	14584.675781
6418.653859	1.414684	0.459625	16126.681641
6418.654782	1.371478	0.459625	17392.556641
6418.655658	1.332294	0.459625	18559.646484
6418.656661	1.289993	0.459625	19853.509766
6418.657656	1.215370	0.459625	21062.802734
6418.658554	0.186998	0.459625	21230.726562
6418.659415	0.090450	0.459625	21308.603516
6418.660491	0.090626	0.459625	21406.117187
6418.661403	0.090538	0.459625	21488.687500
6418.662273	0.090564	0.459625	21567.478516
6418.663272	0.090637	0.459625	21658.025391
6418.664255	0.090586	0.459625	21747.072266
6418.665128	0.090553	0.459625	21826.125000
6418.666102	0.090626	0.459625	21914.394531
6418.667165	0.090524	0.459625	22010.621094
6419.689400	1.428893	0.461160	602.992798
6419.690401	1.880790	0.461160	2485.663574
6419.691334	1.832303	0.461160	4195.202637
6419.692262	1.773648	0.461160	5841.147461
6419.693133	1.718632	0.461160	7338.075684
6419.694180	1.659763	0.461160	9075.847656
6419.695073	1.609783	0.461160	10513.383789
6419.695947	1.561725	0.461160	11878.331055
6419.696946	1.511001	0.461160	13387.821289
6419.697862	1.461709	0.461160	14726.747070
6419.698747	1.419097	0.461160	15982.647461
6419.699704	1.375371	0.461160	17298.876953
6419.700722	1.329349	0.461160	18652.154297
6419.701619	1.290370	0.461160	19809.615234
6419.702490	1.249779	0.461160	20898.171875
6419.703557	0.217650	0.461160	21130.404297
6419.704511	0.090443	0.461160	21216.687500
6419.705385	0.090586	0.461160	21295.859375
6419.706331	0.090524	0.461160	21381.494141
6419.707358	0.090535	0.461160	21474.472656
6419.708233	0.090564	0.461160	21553.716797
6419.709091	0.090652	0.461160	21631.496094
6419.710136	0.090641	0.461160	21726.214844
6419.711082	0.090505	0.461160	21811.832031
6419.711940	0.090652	0.461160	21889.611328
6420.735413	1.432291	0.493080	600.130066
6420.736505	1.878102	0.493080	2651.017334
6420.737494	1.822610	0.493080	4453.578613
6420.738394	1.766158	0.493080	6043.121094
6420.739400	1.705631	0.493080	7758.985840
6420.740460	1.645756	0.493080	9503.486328
6420.741351	1.596438	0.493080	10925.912109
6420.742246	1.547853	0.493080	12311.240234
6420.743361	1.489871	0.493080	13972.446289
6420.744313	1.441714	0.493080	15344.958008
6420.745191	1.399398	0.493080	16573.628906
6420.746233	1.352216	0.493080	17982.636719
6420.747266	1.306428	0.493080	19332.177734
6420.748158	1.268408	0.493080	20463.597656
6420.749123	0.725215	0.493080	21163.429687
6420.750166	0.090970	0.493080	21258.312500
6420.751090	0.090542	0.493080	21341.972656
6420.751952	0.090527	0.493080	21420.007812
6420.753004	0.090707	0.493080	21515.431641
6420.754009	0.090623	0.493080	21606.507812
6420.754883	0.090531	0.493080	21685.632812
6420.755851	0.090674	0.493080	21773.404297
6420.756898	0.090531	0.493080	21868.189453
6420.757794	0.090502	0.493080	21949.279297
6420.758704	0.090487	0.493080	22031.623047
6421.780472	1.503153	0.485257	715.500854
6421.781357	1.883492	0.485257	2382.391602
6421.782309	1.835281	0.485257	4129.579102
6421.783382	1.766429	0.485257	6024.958008
6421.784313	1.710604	0.485257	7617.530273
6421.785183	1.659503	0.485257	9061.297852
6421.786258	1.601246	0.485257	10782.637695
6421.787268	1.545319	0.485257	12343.409180
6421.788162	1.498737	0.485257	13683.279297
6421.789138	1.450034	0.485257	15098.512695
6421.790186	1.399709	0.485257	16565.408203
6421.791105	1.356929	0.485257	17812.425781
6421.791972	1.317283	0.485257	18954.509766
6421.793053	1.272334	0.485257	20329.902344
6421.794050	0.804423	0.485257	21131.912109
6421.794945	0.093164	0.485257	21215.292969
6421.795957	0.090699	0.485257	21307.080078
6421.796999	0.090670	0.485257	21401.558594
6421.797886	0.090637	0.485257	21481.953125
6421.798748	0.090645	0.485257	21560.087891
6421.799849	0.090732	0.485257	21659.984375
6421.800803	0.090582	0.485257	21746.400391
6421.801664	0.090626	0.485257	21824.429687
6421.802735	0.090769	0.485257	21921.642578
6421.803778	0.090685	0.485257	22016.226562
6422.826523	1.511961	0.486289	771.099854
6422.827465	1.881072	0.486289	2543.069580
6422.828328	1.834362	0.486289	4126.123535
6422.829367	1.768466	0.486289	5963.559570
6422.830391	1.706488	0.486289	7711.003418
6422.831282	1.655581	0.486289	9186.125977
6422.832234	1.603777	0.486289	10712.921875
6422.833303	1.548461	0.486289	12368.226562
6422.834230	1.500103	0.486289	13758.821289
6422.835098	1.453063	0.486289	15020.080078
6422.836166	1.401449	0.486289	16516.828125
6422.837168	1.355453	0.486289	17874.992187
6422.838063	1.315067	0.486289	19051.976562
6422.839051	1.274015	0.486289	20310.703125
6422.840108	0.753922	0.486289	21107.599609
6422.841023	0.091637	0.486289	21191.447266
6422.841880	0.090571	0.486289	21269.066406
6422.842975	0.090688	0.486289	21368.371094
6422.843951	0.090538	0.486289	21456.736328
6422.844842	0.090674	0.486289	21537.527344
6422.845829	0.090714	0.486289	21627.062500
6422.846873	0.090648	0.486289	21721.699219
6422.847761	0.090516	0.486289	21802.078125
6422.848618	0.090634	0.486289	21879.751953
6422.849731	0.090714	0.486289	21980.716797
6423.871430	1.450770	0.488355	628.183533
6423.872293	1.882350	0.488355	2252.651367
6423.873402	1.830502	0.488355	4282.677734
6423.874292	1.771864	0.488355	5859.636719
6423.875174	1.718544	0.488355	7375.392090
6423.876177	1.660642	0.488355	9041.015625
6423.877179	1.605476	0.488355	10649.703125
6423.878067	1.558784	0.488355	12033.903320
6423.878931	1.510151	0.488355	13338.673828
6423.880029	1.455524	0.488355	14936.838867
6423.880945	1.410729	0.488355	16229.066406
6423.881828	1.370182	0.488355	17438.937500
6423.882833	1.325413	0.488355	18770.976562
6423.883828	1.281522	0.488355	20046.091797
6423.884712	1.190706	0.488355	21098.675781
6423.885720	0.157332	0.488355	21257.265625
6423.886762	0.090586	0.488355	21351.656250
6423.887665	0.090557	0.488355	21433.429687
6423.888527	0.090641	0.488355	21511.562500
6423.889623	0.090670	0.488355	21610.937500
6423.890588	0.090575	0.488355	21698.341797
6423.891443	0.090652	0.488355	21775.849609
6423.892502	0.090776	0.488355	21871.982422
6423.893545	0.090721	0.488355	21966.605469
6423.894416	0.090608	0.488355	22045.525391
6424.917455	1.459351	0.482909	647.951660
6424.918379	1.883112	0.482909	2387.946777
6424.919243	1.838987	0.482909	3976.831543
6424.920296	1.774285	0.482909	5845.153320
6424.921179	1.719163	0.482909	7363.173828
6424.922059	1.668563	0.482909	8831.509766
6424.923038	1.615181	0.482909	10412.771484
6424.923982	1.563629	0.482909	11888.837891
6424.924863	1.515692	0.482909	13224.162109
6424.925817	1.466309	0.482909	14623.020508
6424.926849	1.416372	0.482909	16084.716797
6424.927740	1.374631	0.482909	17309.513672
6424.928607	1.335461	0.482909	18467.359375
6424.929682	1.288623	0.482909	19852.628906
6424.930624	1.242620	0.482909	21023.175781
6424.931507	0.248027	0.482909	21242.183594
6424.932466	0.090623	0.482909	21329.089844
6424.933514	0.090564	0.482909	21424.000000
6424.934389	0.090670	0.482909	21503.335937
6424.935311	0.090688	0.482909	21586.951172
6424.936369	0.090762	0.482909	21682.976562
6424.937299	0.090681	0.482909	21767.310547
6424.938166	0.090652	0.482909	21845.906250
6424.939217	0.090773	0.482909	21941.308594
6424.940232	0.090707	0.482909	22033.376953
6425.962013	1.490965	0.480158	781.265930
6425.963074	1.875817	0.480158	2771.507568
6425.963998	1.822544	0.480158	4455.538086
6425.964875	1.765115	0.480158	6003.543945
6425.965959	1.701207	0.480158	7847.652344
6425.966958	1.643881	0.480158	9489.888672
6425.967855	1.595823	0.480158	10921.341797
6425.968837	1.543242	0.480158	12436.805664
6425.969909	1.487142	0.480158	14031.022461
6425.970803	1.441388	0.480158	15319.623047
6425.971678	1.397996	0.480158	16542.869141
6425.972810	1.348297	0.480158	18069.140625
6425.973771	1.305630	0.480158	19323.851562
6425.974640	1.269012	0.480158	20426.623047
6425.975666	0.662384	0.480158	21106.228516
6425.976699	0.090619	0.480158	21199.837891
6425.977588	0.090590	0.480158	21280.371094
6425.978498	0.090597	0.480158	21362.814453
6425.979366	0.090656	0.480158	21441.503906
6425.980341	0.090648	0.480158	21529.886719
6425.981258	0.090593	0.480158	21612.960937
6425.982133	0.090670	0.480158	21692.296875
6425.983130	0.090758	0.480158	21782.783203
6425.984053	0.090670	0.480158	21866.472656
6425.984976	0.090630	0.480158	21950.125000
6427.007931	1.438473	0.466876	612.789429
6427.008976	1.879504	0.466876	2576.871582
6427.010005	1.824141	0.466876	4453.912109
6427.010884	1.767330	0.466876	6007.395508
6427.011847	1.709674	0.466876	7653.811523
6427.012903	1.648696	0.466876	9394.834961
6427.013833	1.597233	0.466876	10880.261719
6427.014705	1.548589	0.466876	12230.630859
6427.015772	1.493265	0.466876	13823.945312
6427.016780	1.442769	0.466876	15278.255859
6427.017675	1.400713	0.466876	16531.894531
6427.018654	1.355786	0.466876	17859.208984
6427.019718	1.308475	0.466876	19251.425781
6427.020628	1.269760	0.466876	20406.906250
6427.021496	0.837283	0.466876	21133.667969
6427.022621	0.091355	0.466876	21236.441406
6427.023589	0.090579	0.466876	21324.121094
6427.024454	0.090604	0.466876	21402.494141
6427.025542	0.090703	0.466876	21501.179687
6427.026571	0.090667	0.466876	21594.474609
6427.027464	0.090582	0.466876	21675.365234
6427.028378	0.090667	0.466876	21758.234375
6427.029434	0.090623	0.466876	21853.931641
6427.030368	0.090601	0.466876	21938.552734
6427.031281	0.090637	0.466876	22021.304687
6428.053464	1.473395	0.500855	654.187256
6428.054338	1.883602	0.500855	2300.455566
6428.055346	1.834471	0.500855	4149.602539
6428.056401	1.767982	0.500855	6014.823730
6428.057294	1.712369	0.500855	7543.969727
6428.058170	1.659836	0.500855	8997.986328
6428.059264	1.602448	0.500855	10751.064453
6428.060220	1.552994	0.500855	12235.726562
6428.061090	1.507434	0.500855	13547.194336
6428.062130	1.452356	0.500855	15057.644531
6428.063167	1.402357	0.500855	16511.888672
6428.064053	1.360983	0.500855	17717.718750
6428.065000	1.318689	0.500855	18966.517578
6428.066071	1.273700	0.500855	20330.650391
6428.067020	0.888409	0.500855	21173.750000
6428.067877	0.096665	0.500855	21256.591797
6428.068943	0.090630	0.500855	21353.203125
6428.069950	0.090656	0.500855	21444.494141
6428.070815	0.090524	0.500855	21522.796875
6428.071774	0.090751	0.500855	21609.826172
6428.072829	0.090634	0.500855	21705.445312
6428.073747	0.090535	0.500855	21788.556641
6428.074610	0.090637	0.500855	21866.777344
6428.075681	0.090630	0.500855	21963.841797
6428.076688	0.090601	0.500855	22055.076172
6429.099544	1.520808	0.472689	771.049683
6429.100437	1.882416	0.472689	2452.046875
6429.101302	1.835046	0.472689	4039.362061
6429.102414	1.766741	0.472689	6003.977539
6429.103392	1.708440	0.472689	7674.832031
6429.104267	1.657559	0.472689	9125.195312
6429.105303	1.601462	0.472689	10784.310547
6429.106351	1.547498	0.472689	12406.087891
6429.107243	1.500769	0.472689	13744.773437
6429.108172	1.452784	0.472689	15094.410156
6429.109249	1.398684	0.472689	16600.792969
6429.110201	1.354629	0.472689	17890.400391
6429.111068	1.315247	0.472689	19030.718750
6429.112127	1.271484	0.472689	20377.220703
6429.113141	0.749037	0.472689	21136.744141
6429.114027	0.092128	0.472689	21218.369141
6429.114991	0.090699	0.472689	21305.802734
6429.116022	0.090721	0.472689	21399.335937
6429.116947	0.090634	0.472689	21483.171875
6429.117809	0.090615	0.472689	21561.281250
6429.118879	0.090714	0.472689	21658.345703
6429.119886	0.090630	0.472689	21749.609375
6429.120758	0.090586	0.472689	21828.599609
6429.121728	0.090791	0.472689	21916.666016
6429.122797	0.090674	0.472689	22013.595703
