time (s)	coil I (A)	last det (V)	int current (uC)
4641.898516	1.543319	0.231066	757.769653
4641.899398	1.887953	0.231066	2422.943848
4641.900375	1.838419	0.231066	4219.079102
4641.901448	1.770275	0.231066	6118.583984
4641.902360	1.714977	0.231066	7682.642578
4641.903232	1.664128	0.231066	9133.762695
4641.904280	1.608435	0.231066	10819.402344
4641.905298	0.667892	0.231066	11499.316406
4641.906184	0.090652	0.231066	11579.633789
4641.907138	0.090601	0.231066	11666.066406
4641.908197	0.090553	0.231066	11761.961914
4641.909108	0.090546	0.231066	11844.449219
4641.909968	0.090531	0.231066	11922.305664
4641.911058	0.090597	0.231066	12021.056641
4641.912045	0.090546	0.231066	12110.424805
4641.912935	0.090480	0.231066	12190.952148
4641.913935	0.090652	0.231066	12281.603516
4641.914974	0.090494	0.231066	12375.626953
4642.954299	1.557916	0.270218	858.411865
4642.955303	1.881372	0.270218	2747.309570
4642.956200	1.831447	0.270218	4390.117187
4642.957071	1.774307	0.270218	5935.538086
4642.958186	1.710004	0.270218	7842.192383
4642.959089	1.657636	0.270218	9339.037109
4642.959970	1.611427	0.270218	10758.704102
4642.960969	0.775876	0.270218	11533.804687
4642.961964	0.090494	0.270218	11623.846680
4642.962851	0.090443	0.270218	11704.069336
4642.963837	0.090582	0.270218	11793.383789
4642.964877	0.090549	0.270218	11887.554687
4642.965764	0.090483	0.270218	11967.813477
4642.966621	0.090601	0.270218	12045.458008
4642.967710	0.090641	0.270218	12144.166016
4642.968679	0.090494	0.270218	12231.855469
4642.969538	0.090546	0.270218	12309.633789
4642.970615	0.090663	0.270218	12407.277344
4643.989440	1.441956	0.231642	611.389160
4643.990456	1.884745	0.231642	2526.289795
4643.991519	1.829612	0.231642	4471.166992
4643.992405	1.772520	0.231642	6041.619141
4643.993306	1.717108	0.231642	7588.733398
4643.994388	1.656852	0.231642	9381.447266
4643.995341	1.606088	0.231642	10912.048828
4643.996207	0.816650	0.231642	11619.267578
4643.997240	0.090868	0.231642	11713.133789
4643.998281	0.090502	0.231642	11807.345703
4643.999153	0.090491	0.231642	11886.253906
4644.000105	0.090579	0.231642	11972.484375
4644.001156	0.090531	0.231642	12067.632812
4644.002094	0.090553	0.231642	12152.571289
4644.002958	0.090542	0.231642	12230.799805
4644.004004	0.090637	0.231642	12325.606445
4644.005027	0.090546	0.231642	12418.234375
4644.005914	0.090538	0.231642	12498.541992
4645.043723	1.467477	0.251820	741.075745
4645.044781	1.882104	0.251820	2732.342285
4645.045675	1.831706	0.251820	4369.887695
4645.046540	1.776544	0.251820	5906.598633
4645.047587	1.713750	0.251820	7700.895020
4645.048555	1.658837	0.251820	9306.648437
4645.049421	1.612317	0.251820	10702.915039
4645.050452	0.761213	0.251820	11487.725586
4645.051479	0.090436	0.251820	11580.603516
4645.052360	0.090403	0.251820	11660.248047
4645.053283	0.090553	0.251820	11743.828125
4645.054348	0.090593	0.251820	11840.309570
4645.055297	0.090509	0.251820	11926.203125
4645.056157	0.090487	0.251820	12004.022461
4645.057192	0.090681	0.251820	12097.877930
4645.058206	0.090505	0.251820	12189.650391
4645.059095	0.090491	0.251820	12270.096680
4645.060049	0.090703	0.251820	12356.627930
4646.082489	1.436056	0.276889	604.579529
4646.083490	1.885210	0.276889	2491.674561
4646.084546	1.830857	0.276889	4425.059570
4646.085451	1.772666	0.276889	6029.322266
4646.086317	1.717910	0.276889	7517.032227
4646.087431	1.656812	0.276889	9362.720703
4646.088392	1.606410	0.276889	10906.480469
4646.089263	0.817196	0.276889	11618.257812
4646.090307	0.090828	0.276889	11713.082031
4646.091341	0.090491	0.276889	11806.649414
4646.092219	0.090637	0.276889	11886.228516
4646.093128	0.090575	0.276889	11968.561523
4646.094192	0.090553	0.276889	12064.910156
4646.095145	0.090520	0.276889	12151.175781
4646.096001	0.090553	0.276889	12228.689453
4646.097027	0.090663	0.276889	12321.709961
4646.098051	0.090538	0.276889	12414.420898
4646.098940	0.090465	0.276889	12494.844727
4647.132111	1.460237	0.253750	630.822327
4647.133026	1.886744	0.253750	2357.193359
4647.134102	1.833809	0.253750	4330.371582
4647.135045	1.773798	0.253750	6003.062500
4647.135910	1.720796	0.253750	7491.550781
4647.136962	1.661503	0.253750	9239.451172
4647.137993	1.606597	0.253750	10895.852539
4647.138877	0.795850	0.253750	11599.383789
4647.139839	0.091626	0.253750	11687.528320
4647.140887	0.090579	0.253750	11782.455078
4647.141813	0.090483	0.253750	11866.243164
4647.142678	0.090538	0.253750	11944.558594
4647.143718	0.090663	0.253750	12038.847656
4647.144723	0.090542	0.253750	12129.842773
4647.145613	0.090542	0.253750	12210.424805
4647.146571	0.090710	0.253750	12297.325195
4647.147621	0.090579	0.253750	12392.432617
4647.148546	0.090480	0.253750	12476.125977
4648.173498	1.444193	0.240662	610.893677
4648.174532	1.885140	0.240662	2560.128906
4648.175430	1.837775	0.240662	4210.450684
4648.176312	1.781949	0.240662	5782.129883
4648.177269	1.724524	0.240662	7432.499023
4648.178246	1.667798	0.240662	9061.937500
4648.179173	1.618191	0.240662	10562.000000
4648.180043	1.185472	0.240662	11593.361328
4648.181085	0.096771	0.240662	11694.197266
4648.181971	0.090344	0.240662	11774.242187
4648.182843	0.090557	0.240662	11853.208008
4648.183733	0.090538	0.240662	11933.787109
4648.184759	0.090465	0.240662	12026.604492
4648.185655	0.090483	0.240662	12107.677734
4648.186519	0.090549	0.240662	12185.912109
4648.187618	0.090509	0.240662	12285.381836
4648.188522	0.090494	0.240662	12367.188477
4648.189395	0.090524	0.240662	12446.215820
4649.223220	1.562944	0.251176	853.367554
4649.224290	1.879699	0.251176	2864.645020
4649.225181	1.827920	0.251176	4493.321777
4649.226075	1.770077	0.251176	6075.770508
4649.227176	1.705547	0.251176	7953.577637
4649.228133	1.651853	0.251176	9534.400391
4649.229008	1.605106	0.251176	10938.868164
4649.230053	0.548031	0.251176	11511.560547
4649.231071	0.090414	0.251176	11603.601562
4649.231963	0.090498	0.251176	11684.326172
4649.232905	0.090560	0.251176	11769.633789
4649.233955	0.090560	0.251176	11864.721680
4649.234884	0.090498	0.251176	11948.793945
4649.235744	0.090579	0.251176	12026.691406
4649.236799	0.090718	0.251176	12122.398437
4649.237810	0.090582	0.251176	12213.977539
4649.238689	0.090549	0.251176	12293.570312
4649.239640	0.090568	0.251176	12379.700195
4650.262967	1.447874	0.243337	608.106934
4650.264075	1.882899	0.243337	2694.359375
4650.264988	1.832186	0.243337	4367.145508
4650.265866	1.776998	0.243337	5927.350098
4650.266863	1.717485	0.243337	7639.683105
4650.267876	1.658697	0.243337	9319.943359
4650.268775	1.611204	0.243337	10768.415039
4650.269785	0.756852	0.243337	11532.834961
4650.270840	0.090502	0.243337	11628.314453
4650.271722	0.090458	0.243337	11708.098633
4650.272583	0.090641	0.243337	11786.140625
4650.273688	0.090597	0.243337	11886.250000
4650.274649	0.090516	0.243337	11973.236328
4650.275507	0.090487	0.243337	12050.874023
4650.276565	0.090601	0.243337	12146.729492
4650.277592	0.090498	0.243337	12239.670898
4650.278461	0.090487	0.243337	12318.303711
4650.279381	0.090590	0.243337	12401.646484
4651.311560	1.459479	0.230672	634.873230
4651.312422	1.887539	0.230672	2261.931885
4651.313534	1.834677	0.230672	4302.092285
4651.314506	1.773431	0.230672	6025.867676
4651.315368	1.720664	0.230672	7509.080078
4651.316459	1.658987	0.230672	9319.035156
4651.317504	1.603601	0.230672	10994.798828
4651.318396	0.689864	0.230672	11610.158203
4651.319311	0.090981	0.230672	11693.406250
4651.320400	0.090579	0.230672	11792.045898
4651.321319	0.090502	0.230672	11875.216797
4651.322185	0.090612	0.230672	11953.686523
4651.323207	0.090619	0.230672	12046.298828
4651.324237	0.090568	0.230672	12139.583008
4651.325122	0.090571	0.230672	12219.738281
4651.326075	0.090681	0.230672	12306.157227
4651.327118	0.090597	0.230672	12400.649414
4651.328056	0.090560	0.230672	12485.594727
4652.355000	1.436807	0.248900	607.769165
4652.355947	1.886169	0.248900	2393.971680
4652.357002	1.833127	0.248900	4327.920898
4652.357942	1.773783	0.248900	5995.276855
4652.358815	1.720052	0.248900	7496.882812
4652.359875	1.659994	0.248900	9256.476562
4652.360893	1.605864	0.248900	10891.246094
4652.361788	0.786504	0.248900	11595.166992
4652.362757	0.091600	0.248900	11683.927734
4652.363803	0.090531	0.248900	11778.623047
4652.364713	0.090560	0.248900	11861.033203
4652.365574	0.090593	0.248900	11939.034180
4652.366640	0.090681	0.248900	12035.700195
4652.367628	0.090491	0.248900	12125.105469
4652.368519	0.090476	0.248900	12205.719727
4652.369518	0.090645	0.248900	12296.273437
4652.370565	0.090601	0.248900	12391.131836
4652.371453	0.090538	0.248900	12471.530273
4653.402552	1.441824	0.265819	607.007812
4653.403637	1.883481	0.265819	2650.584961
4653.404575	1.832065	0.265819	4369.062500
4653.405457	1.776119	0.265819	5935.599609
4653.406431	1.718313	0.265819	7609.236328
4653.407437	1.660030	0.265819	9279.226562
4653.408318	1.613273	0.265819	10700.519531
4653.409185	1.031114	0.265819	11594.496094
4653.410253	0.092062	0.265819	11692.818359
4653.411172	0.090432	0.265819	11775.925781
4653.412035	0.090494	0.265819	11854.022461
4653.412993	0.090652	0.265819	11940.867187
4653.414017	0.090524	0.265819	12033.563477
4653.414909	0.090549	0.265819	12114.333008
4653.415860	0.090703	0.265819	12200.591797
4653.416915	0.090575	0.265819	12296.148437
4653.417843	0.090524	0.265819	12380.154297
4653.418703	0.090597	0.265819	12458.067383
4654.445500	1.458197	0.240932	618.275513
4654.446613	1.882002	0.240932	2712.943359
4654.447577	1.828806	0.240932	4475.912598
4654.448451	1.773179	0.240932	6025.670898
4654.449493	1.710652	0.240932	7808.169922
4654.450523	1.652659	0.240932	9510.408203
4654.451418	1.604674	0.240932	10946.591797
4654.452359	0.718729	0.240932	11622.916016
4654.453403	0.090571	0.240932	11717.472656
4654.454350	0.090560	0.240932	11803.233398
4654.455210	0.090560	0.240932	11881.115234
4654.456261	0.090641	0.240932	11976.378906
4654.457269	0.090531	0.240932	12067.633789
4654.458150	0.090527	0.240932	12147.388672
4654.459108	0.090593	0.240932	12234.176758
4654.460154	0.090634	0.240932	12328.979492
4654.461076	0.090527	0.240932	12412.445312
4654.461933	0.090549	0.240932	12490.045898
4655.494120	1.498759	0.276611	687.930176
4655.494986	1.888619	0.276611	2323.474609
4655.496008	1.838496	0.276611	4202.417969
4655.497047	1.773303	0.276611	6044.879883
4655.497936	1.718408	0.276611	7572.544922
4655.498847	1.665146	0.276611	9089.493164
4655.499940	1.607311	0.276611	10846.284180
4655.500893	0.751392	0.276611	11562.360352
4655.501752	0.091047	0.276611	11640.570312
4655.502786	0.090575	0.276611	11734.224609
4655.503807	0.090483	0.276611	11826.608398
4655.504700	0.090443	0.276611	11907.374023
4655.505650	0.090604	0.276611	11993.448242
4655.506704	0.090590	0.276611	12088.929687
4655.507635	0.090590	0.276611	12173.268555
4655.508504	0.090469	0.276611	12251.885742
4655.509560	0.090568	0.276611	12347.525391
4655.510575	0.090516	0.276611	12439.399414
4656.537067	1.500062	0.258922	708.029419
4656.537950	1.888158	0.258922	2375.272949
4656.538917	1.840741	0.258922	4155.269531
4656.539966	1.773812	0.258922	6015.998535
4656.540892	1.717592	0.258922	7606.488281
4656.541753	1.667080	0.258922	9041.843750
4656.542833	1.610072	0.258922	10780.721680
4656.543852	0.717206	0.258922	11511.554687
4656.544731	0.090820	0.258922	11591.385742
4656.545723	0.090502	0.258922	11681.163086
4656.546775	0.090608	0.258922	11776.482422
4656.547662	0.090472	0.258922	11856.731445
4656.548527	0.090601	0.258922	11935.100586
4656.549608	0.090623	0.258922	12033.063477
4656.550601	0.090546	0.258922	12122.975586
4656.551498	0.090564	0.258922	12204.211914
4656.552478	0.090699	0.258922	12293.097656
4656.553537	0.090571	0.258922	12389.012695
4657.583609	1.506299	0.254616	723.023437
4657.584485	1.888004	0.254616	2376.915039
4657.585357	1.844839	0.254616	3985.614258
4657.586389	1.779650	0.254616	5822.212891
4657.587349	1.722004	0.254616	7475.336914
4657.588222	1.671083	0.254616	8934.192383
4657.589273	1.613958	0.254616	10630.461914
4657.590311	0.827922	0.254616	11489.845703
4657.591200	0.091454	0.254616	11571.148437
4657.592162	0.090542	0.254616	11658.250000
4657.593212	0.090630	0.254616	11753.411133
4657.594141	0.090509	0.254616	11837.494141
4657.595002	0.090634	0.254616	11915.529297
4657.596085	0.090637	0.254616	12013.689453
4657.597067	0.090502	0.254616	12102.562500
4657.597951	0.090612	0.254616	12182.663086
4657.598942	0.090663	0.254616	12272.509766
4657.599986	0.090601	0.254616	12367.096680
4658.626599	1.537852	0.254676	818.137024
4658.627494	1.886477	0.254676	2506.533936
4658.628354	1.839294	0.254676	4088.327148
4658.629468	1.772131	0.254676	6062.481445
4658.630455	1.712900	0.254676	7753.114258
4658.631317	1.662924	0.254676	9186.554687
4658.632396	1.605641	0.254676	10919.041016
4658.633436	0.568960	0.254676	11510.759766
4658.634310	0.090385	0.254676	11589.755859
4658.635235	0.090527	0.254676	11673.494141
4658.636296	0.090597	0.254676	11769.617187
4658.637235	0.090531	0.254676	11854.625977
4658.638102	0.090586	0.254676	11933.164062
4658.639129	0.090659	0.254676	12026.271484
4658.640160	0.090542	0.254676	12119.620117
4658.641050	0.090553	0.254676	12200.211914
4658.641977	0.090597	0.254676	12284.195312
4658.643043	0.090652	0.254676	12380.830078
4659.673091	1.506090	0.240763	745.514587
4659.673993	1.887294	0.240763	2447.853516
4659.674861	1.841426	0.240763	4046.210937
4659.675961	1.773428	0.240763	5996.981445
4659.676960	1.713018	0.240763	7708.286133
4659.677858	1.662107	0.240763	9200.858398
4659.678851	1.608918	0.240763	10798.514648
4659.679913	0.645205	0.240763	11483.722656
4659.680798	0.090458	0.240763	11563.777344
4659.681680	0.090557	0.240763	11643.648437
4659.682757	0.090612	0.240763	11741.237305
4659.683718	0.090505	0.240763	11828.212891
4659.684582	0.090447	0.240763	11906.359375
4659.685613	0.090623	0.240763	11999.791016
4659.686653	0.090571	0.240763	12093.985352
4659.687539	0.090542	0.240763	12174.205078
4659.688458	0.090590	0.240763	12257.457031
4659.689514	0.090615	0.240763	12353.146484
4660.717510	1.454810	0.259466	624.113281
4660.718462	1.885909	0.259466	2419.499023
4660.719523	1.832483	0.259466	4363.763184
4660.720452	1.773552	0.259466	6011.393555
4660.721317	1.720034	0.259466	7499.223145
4660.722390	1.659902	0.259466	9280.298828
4660.723406	1.605344	0.259466	10911.328125
4660.724296	0.777836	0.259466	11603.601562
4660.725159	0.091432	0.259466	11682.506836
4660.726137	0.090491	0.259466	11771.006836
4660.727078	0.090524	0.259466	11856.189453
4660.727985	0.090542	0.259466	11938.310547
4660.728862	0.090568	0.259466	12017.738281
4660.729881	0.090582	0.259466	12110.041992
4660.730776	0.090509	0.259466	12191.047852
4660.731648	0.090560	0.259466	12270.016602
4660.732550	0.090557	0.259466	12351.698242
4660.733563	0.090542	0.259466	12443.416992
4661.764029	1.430889	0.244658	606.696838
4661.764986	1.885986	0.244658	2411.585693
4661.766035	1.833691	0.244658	4335.127930
4661.766961	1.774482	0.244658	5978.298828
4661.767834	1.721016	0.244658	7480.745605
4661.768870	1.661876	0.244658	9202.449219
4661.769896	1.606728	0.244658	10850.953125
4661.770794	0.823806	0.244658	11590.731445
4661.771763	0.091981	0.244658	11679.861328
4661.772807	0.090590	0.244658	11774.436523
4661.773728	0.090542	0.244658	11857.826172
4661.774589	0.090564	0.244658	11935.801758
4661.775660	0.090601	0.244658	12032.834961
4661.776653	0.090560	0.244658	12122.761719
4661.777542	0.090615	0.244658	12203.318359
4661.778507	0.090677	0.244658	12290.822266
4661.779566	0.090520	0.244658	12386.682617
4661.780465	0.090557	0.244658	12468.092773
4662.807481	1.433075	0.256961	603.324585
4662.808463	1.885159	0.256961	2454.550293
4662.809524	1.831578	0.256961	4397.854980
4662.810430	1.773347	0.256961	6004.507812
4662.811300	1.718295	0.256961	7499.423828
4662.812410	1.657291	0.256961	9339.017578
4662.813385	1.605326	0.256961	10904.209961
4662.814260	0.808249	0.256961	11611.427734
4662.815324	0.090736	0.256961	11707.970703
4662.816347	0.090568	0.256961	11800.621094
4662.817233	0.090549	0.256961	11880.847656
4662.818163	0.090674	0.256961	11965.173828
4662.819213	0.090674	0.256961	12060.380859
4662.820151	0.090509	0.256961	12145.278320
4662.821011	0.090546	0.256961	12223.147461
4662.822052	0.090677	0.256961	12317.542969
4662.823076	0.090524	0.256961	12410.239258
4662.823957	0.090487	0.256961	12489.958008
4663.855183	1.590923	0.251796	906.825989
4663.856216	1.880046	0.251796	2848.914062
4663.857106	1.828890	0.251796	4476.626465
4663.858020	1.770879	0.251796	6095.209961
4663.859074	1.707927	0.251796	7895.365234
4663.860029	1.653926	0.251796	9474.864258
4663.860895	1.607080	0.251796	10866.595703
4663.861960	0.621746	0.251796	11528.754883
4663.862990	0.090399	0.251796	11621.866211
4663.863864	0.090516	0.251796	11700.977539
4663.864787	0.090498	0.251796	11784.506836
4663.865852	0.090630	0.251796	11881.027344
4663.866770	0.090571	0.251796	11964.171875
4663.867637	0.090597	0.251796	12042.719727
4663.868674	0.090641	0.251796	12136.713867
4663.869685	0.090524	0.251796	12228.233398
4663.870576	0.090601	0.251796	12308.958984
4663.871536	0.090670	0.251796	12396.001953
4664.898053	1.472618	0.268647	740.727051
4664.899116	1.880969	0.268647	2740.197266
4664.900043	1.828978	0.268647	4435.660156
4664.900907	1.773091	0.268647	5967.610352
4664.901975	1.710216	0.268647	7794.121094
4664.902987	1.652454	0.268647	9466.404297
4664.903868	1.605432	0.268647	10880.790039
4664.904856	0.690732	0.268647	11563.233398
4664.905893	0.090465	0.268647	11657.045898
4664.906797	0.090513	0.268647	11738.869141
4664.907654	0.090575	0.268647	11816.492187
4664.908708	0.090641	0.268647	11912.027344
4664.909702	0.090392	0.268647	12001.876953
4664.910590	0.090469	0.268647	12082.212891
4664.911564	0.090645	0.268647	12170.500977
4664.912614	0.090641	0.268647	12265.673828
4664.913518	0.090476	0.268647	12347.463867
4664.914380	0.090579	0.268647	12425.542969
4665.945622	1.514187	0.261335	763.150208
4665.946552	1.885807	0.261335	2516.950684
4665.947427	1.839478	0.261335	4126.493652
4665.948473	1.773453	0.261335	5981.525879
4665.949493	1.712322	0.261335	7728.094238
4665.950383	1.661451	0.261335	9206.786133
4665.951347	1.610435	0.261335	10759.245117
4665.952414	0.658634	0.261335	11462.007812
4665.953337	0.090480	0.261335	11545.520508
4665.954196	0.090575	0.261335	11623.324219
4665.955281	0.090670	0.261335	11721.701172
4665.956271	0.090487	0.261335	11811.283203
4665.957163	0.090579	0.261335	11892.079102
4665.958149	0.090571	0.261335	11981.382812
4665.959207	0.090538	0.261335	12077.171875
4665.960113	0.090505	0.261335	12159.169922
4665.960974	0.090593	0.261335	12237.170898
4665.962065	0.090579	0.261335	12335.992187
4666.987454	1.450752	0.251808	616.569580
4666.988533	1.882859	0.251808	2648.174316
4666.989531	1.828257	0.251808	4472.774414
4666.990408	1.772399	0.251808	6027.167969
4666.991400	1.713076	0.251808	7726.539551
4666.992462	1.652772	0.251808	9481.783203
4666.993366	1.604161	0.251808	10931.945312
4666.994235	0.767468	0.251808	11598.875000
4666.995326	0.090491	0.251808	11697.600586
4666.996297	0.090516	0.251808	11785.492187
4666.997162	0.090498	0.251808	11863.773437
4666.998191	0.090645	0.251808	11957.046875
4666.999227	0.090608	0.251808	12050.916992
4667.000117	0.090524	0.251808	12131.483398
4667.001028	0.090637	0.251808	12214.053711
4667.002109	0.090670	0.251808	12312.068359
4667.003063	0.090469	0.251808	12398.375977
4667.003921	0.090498	0.251808	12476.023437
4668.037623	1.457384	0.254858	708.288696
4668.038700	1.881240	0.254858	2734.384277
4668.039635	1.828931	0.254858	4444.434570
4668.040499	1.773607	0.254858	5976.831055
4668.041560	1.710762	0.254858	7791.949219
4668.042584	1.652593	0.254858	9484.204102
4668.043461	1.605472	0.254858	10892.203125
4668.044418	0.711273	0.254858	11572.891602
4668.045482	0.090439	0.254858	11669.119141
4668.046389	0.090509	0.254858	11751.210937
4668.047250	0.090524	0.254858	11829.151367
4668.048296	0.090637	0.254858	11923.958008
4668.049300	0.090516	0.254858	12014.836914
4668.050187	0.090553	0.254858	12095.157227
4668.051150	0.090637	0.254858	12182.440430
4668.052195	0.090601	0.254858	12277.118164
4668.053125	0.090586	0.254858	12361.363281
4668.053990	0.090549	0.254858	12439.688477
4669.076920	1.434825	0.254495	606.931152
4669.077927	1.884704	0.254495	2504.828613
4669.078999	1.829048	0.254495	4465.567871
4669.079895	1.771567	0.254495	6052.892578
4669.080807	1.715987	0.254495	7617.873047
4669.081897	1.654918	0.254495	9421.734375
4669.082850	1.603817	0.254495	10950.171875
4669.083724	0.760214	0.254495	11614.598633
4669.084774	0.090645	0.254495	11709.775391
4669.085793	0.090538	0.254495	11802.034180
4669.086679	0.090502	0.254495	11882.218750
4669.087623	0.090681	0.254495	11967.821289
4669.088668	0.090634	0.254495	12062.533203
4669.089589	0.090546	0.254495	12145.925781
4669.090450	0.090520	0.254495	12223.863281
4669.091503	0.090677	0.254495	12319.346680
4669.092515	0.090505	0.254495	12410.938477
4669.093389	0.090527	0.254495	12490.059570
4670.128157	1.518475	0.244678	769.867004
4670.129166	1.883016	0.244678	2669.830322
4670.130042	1.834768	0.244678	4277.086914
4670.131029	1.772432	0.244678	6026.477051
4670.132092	1.708788	0.244678	7842.918457
4670.132999	1.656757	0.244678	9345.596680
4670.133874	1.608300	0.244678	10752.859375
4670.134975	0.614260	0.244678	11429.160156
4670.135949	0.090341	0.244678	11517.152344
4670.136855	0.090403	0.244678	11599.057617
4670.137740	0.090447	0.244678	11679.102539
4670.138738	0.090524	0.244678	11769.445312
4670.139653	0.090604	0.244678	11852.348633
4670.140568	0.090480	0.244678	11935.137695
4670.141428	0.090542	0.244678	12013.003906
4670.142463	0.090505	0.244678	12106.676758
4670.143344	0.090454	0.244678	12186.367187
4670.144211	0.090502	0.244678	12264.832031
4671.166903	1.435272	0.245270	604.249634
4671.167931	1.884364	0.245270	2541.375977
4671.168970	1.829703	0.245270	4442.437500
4671.169851	1.773226	0.245270	6004.649902
4671.170825	1.715314	0.245270	7675.365234
4671.171890	1.654977	0.245270	9437.916016
4671.172807	1.605110	0.245270	10909.801758
4671.173680	0.795388	0.245270	11604.175781
4671.174765	0.090505	0.245270	11702.374023
4671.175764	0.090590	0.245270	11792.873047
4671.176648	0.090491	0.245270	11872.867187
4671.177635	0.090557	0.245270	11962.247070
4671.178677	0.090527	0.245270	12056.576172
4671.179582	0.090520	0.245270	12138.497070
4671.180440	0.090549	0.245270	12216.188477
4671.181541	0.090601	0.245270	12315.939453
4671.182511	0.090531	0.245270	12403.754883
4671.183390	0.090549	0.245270	12483.347656
4672.219084	1.452550	0.250036	643.479675
4672.219963	1.888773	0.250036	2303.711426
4672.220822	1.849061	0.250036	3892.055176
4672.221887	1.781583	0.250036	5789.441406
4672.222797	1.724828	0.250036	7359.034668
4672.223716	1.672994	0.250036	8896.516602
4672.224588	1.624186	0.250036	10312.806641
4672.225639	1.129065	0.250036	11499.454102
4672.226533	0.099342	0.250036	11588.265625
4672.227410	0.090458	0.250036	11667.596680
4672.228404	0.090568	0.250036	11757.621094
4672.229337	0.090579	0.250036	11842.130859
4672.230250	0.090527	0.250036	11924.782227
4672.231114	0.090527	0.250036	12002.998047
4672.232149	0.090542	0.250036	12096.708984
4672.233034	0.090494	0.250036	12176.796875
4672.233890	0.090623	0.250036	12254.370117
4672.234923	0.090634	0.250036	12347.994141
4673.256384	1.442970	0.259667	614.705200
4673.257251	1.888227	0.259667	2251.798340
4673.258336	1.836526	0.259667	4244.428711
4673.259269	1.776910	0.259667	5902.286133
4673.260153	1.723466	0.259667	7425.829590
4673.261134	1.668446	0.259667	9062.575195
4673.262139	1.613145	0.259667	10683.785156
4673.263037	1.006619	0.259667	11587.728516
4673.263901	0.095457	0.259667	11670.203125
4673.264996	0.090557	0.259667	11769.362305
4673.265907	0.090465	0.259667	11851.776367
4673.266773	0.090546	0.259667	11930.188477
4673.267762	0.090582	0.259667	12019.774414
4673.268786	0.090483	0.259667	12112.429687
4673.269653	0.090546	0.259667	12190.932617
4673.270607	0.090604	0.259667	12277.369141
4673.271653	0.090586	0.259667	12372.122070
4673.272579	0.090524	0.259667	12455.947266
4674.312144	1.477416	0.269674	650.062927
4674.313023	1.888619	0.269674	2310.159180
4674.314018	1.840693	0.269674	4141.648926
4674.315087	1.773651	0.269674	6037.682129
4674.315984	1.718185	0.269674	7578.894043
4674.316854	1.666703	0.269674	9028.925781
4674.317956	1.609380	0.269674	10802.462891
4674.318918	0.785991	0.269674	11558.586914
4674.319778	0.091443	0.269674	11637.227539
4674.320823	0.090608	0.269674	11731.913086
4674.321849	0.090590	0.269674	11824.858398
4674.322727	0.090568	0.269674	11904.376953
4674.323643	0.090535	0.269674	11987.306641
4674.324704	0.090670	0.269674	12083.507812
4674.325645	0.090612	0.269674	12168.773437
4674.326504	0.090546	0.269674	12246.551758
4674.327507	0.090527	0.269674	12337.350586
4674.328549	0.090531	0.269674	12431.683594
4675.346367	1.439004	0.295032	611.576660
4675.347398	1.884522	0.295032	2554.518555
4675.348441	1.829634	0.295032	4462.826660
4675.349330	1.772728	0.295032	6038.782227
4675.350276	1.715768	0.295032	7661.898437
4675.351340	1.655815	0.295032	9423.685547
4675.352281	1.604733	0.295032	10933.739258
4675.353148	0.790258	0.295032	11618.892578
4675.354193	0.090630	0.295032	11713.600586
4675.355212	0.090436	0.295032	11805.754883
4675.356100	0.090535	0.295032	11886.149414
4675.357064	0.090637	0.295032	11973.523437
4675.358121	0.090560	0.295032	12069.246094
4675.359037	0.090538	0.295032	12152.179687
4675.359898	0.090524	0.295032	12230.120117
4675.360963	0.090677	0.295032	12326.691406
4675.361967	0.090553	0.295032	12417.606445
4675.362854	0.090535	0.295032	12497.911133
4676.402641	1.471282	0.246382	635.593689
4676.403587	1.886041	0.246382	2419.788574
4676.404650	1.832373	0.246382	4367.601074
4676.405572	1.773750	0.246382	6002.998535
4676.406434	1.720576	0.246382	7486.135254
4676.407514	1.660118	0.246382	9279.063477
4676.408524	1.605582	0.246382	10900.701172
4676.409406	0.796996	0.246382	11603.651367
4676.410381	0.091666	0.246382	11693.026367
4676.411435	0.090549	0.246382	11788.465820
4676.412341	0.090531	0.246382	11870.487305
4676.413197	0.090527	0.246382	11947.978516
4676.414275	0.090615	0.246382	12045.662109
4676.415253	0.090483	0.246382	12134.155273
4676.416143	0.090502	0.246382	12214.702148
4676.417134	0.090692	0.246382	12304.578125
4676.418184	0.090619	0.246382	12399.727539
4676.419087	0.090623	0.246382	12481.559570
4677.434883	1.512828	0.257351	745.824463
4677.435763	1.887880	0.257351	2407.158691
4677.436693	1.840876	0.257351	4119.173828
4677.437754	1.773648	0.257351	6001.013672
4677.438701	1.716738	0.257351	7626.764648
4677.439575	1.666245	0.257351	9083.062500
4677.440634	1.609596	0.257351	10787.625000
4677.441665	0.676165	0.257351	11484.750977
4677.442557	0.090553	0.257351	11565.524414
4677.443517	0.090535	0.257351	11652.437500
4677.444575	0.090612	0.257351	11748.304687
4677.445506	0.090505	0.257351	11832.565430
4677.446367	0.090487	0.257351	11910.474609
4677.447445	0.090656	0.257351	12008.201172
4677.448437	0.090469	0.257351	12097.946289
4677.449319	0.090520	0.257351	12177.785156
4677.450308	0.090681	0.257351	12267.468750
4677.451361	0.090535	0.257351	12362.801758
4678.494735	1.510968	0.262310	760.016907
4678.495616	1.887561	0.262310	2422.958008
4678.496520	1.840704	0.262310	4086.954590
4678.497626	1.772164	0.262310	6046.968262
4678.498579	1.714816	0.262310	7681.187500
4678.499448	1.665300	0.262310	9128.333008
4678.500504	1.607941	0.262310	10826.318359
4678.501521	0.652921	0.262310	11490.338867
4678.502404	0.090659	0.262310	11570.390625
4678.503358	0.090516	0.262310	11656.743164
4678.504400	0.090520	0.262310	11751.065430
4678.505318	0.090571	0.262310	11834.209961
4678.506176	0.090619	0.262310	11911.960937
4678.507228	0.090604	0.262310	12007.276367
4678.508244	0.090509	0.262310	12099.233398
4678.509120	0.090520	0.262310	12178.529297
4678.510091	0.090688	0.262310	12266.587891
4678.511151	0.090575	0.262310	12362.597656
4679.524359	1.509239	0.260880	754.619690
4679.525284	1.886063	0.260880	2499.228271
4679.526220	1.837493	0.260880	4219.121094
4679.527090	1.780646	0.260880	5768.282715
4679.528142	1.718668	0.260880	7576.321777
4679.529028	1.667743	0.260880	9053.942383
4679.529905	1.620432	0.260880	10475.061523
4679.530890	1.050084	0.260880	11509.394531
4679.531836	0.094720	0.260880	11599.000000
4679.532740	0.090469	0.260880	11680.784180
4679.533615	0.090491	0.260880	11759.963867
4679.534626	0.090546	0.260880	11851.505859
4679.535523	0.090564	0.260880	11932.742187
4679.536394	0.090461	0.260880	12011.534180
4679.537294	0.090593	0.260880	12093.068359
4679.538281	0.090524	0.260880	12182.415039
4679.539200	0.090546	0.260880	12265.626953
4679.540062	0.090568	0.260880	12343.696289
4680.587294	1.523331	0.275354	776.898926
4680.588258	1.884844	0.275354	2593.888184
4680.589122	1.838408	0.275354	4182.272949
4680.590245	1.768033	0.275354	6167.774414
4680.591274	1.706796	0.275354	7924.067383
4680.592164	1.656328	0.275354	9398.199219
4680.593119	1.604744	0.275354	10930.729492
4680.594185	0.517386	0.275354	11482.263672
4680.595110	0.090344	0.275354	11565.832031
4680.595971	0.090538	0.275354	11643.785156
4680.597034	0.090659	0.275354	11740.156250
4680.598047	0.090454	0.275354	11831.786133
4680.598920	0.090494	0.275354	11910.788086
4680.599886	0.090652	0.275354	11998.357422
4680.600952	0.090447	0.275354	12094.773437
4680.601855	0.090546	0.275354	12176.536133
4680.602716	0.090542	0.275354	12254.493164
4680.603773	0.090615	0.275354	12350.273437
4681.613806	1.464891	0.265525	694.358459
4681.614823	1.884309	0.265525	2610.700928
4681.615739	1.834695	0.265525	4291.281250
4681.616604	1.777108	0.265525	5828.479980
4681.617710	1.714761	0.265525	7725.005371
4681.618586	1.663348	0.265525	9182.098633
4681.619455	1.616499	0.265525	10586.835937
4681.620488	0.864522	0.265525	11479.886719
4681.621473	0.090703	0.265525	11569.229492
4681.622345	0.090388	0.265525	11648.047852
4681.623201	0.090491	0.265525	11725.507812
4681.624305	0.090590	0.265525	11825.518555
4681.625209	0.090502	0.265525	11907.332031
4681.626084	0.090546	0.265525	11986.559570
4681.627100	0.090601	0.265525	12078.609375
4681.628079	0.090421	0.265525	12167.131836
4681.628953	0.090531	0.265525	12246.255859
4681.629939	0.090612	0.265525	12335.598633
4682.677764	1.522972	0.270564	743.210510
4682.678649	1.887682	0.270564	2413.809082
4682.679628	1.838958	0.270564	4214.148437
4682.680681	1.771575	0.270564	6079.616211
4682.681603	1.715907	0.270564	7661.682617
4682.682464	1.666080	0.270564	9096.177734
4682.683520	1.608171	0.270564	10794.406250
4682.684539	0.678541	0.270564	11485.839844
4682.685426	0.090549	0.270564	11566.157227
4682.686394	0.090472	0.270564	11653.734375
4682.687442	0.090579	0.270564	11748.661133
4682.688358	0.090542	0.270564	11831.597656
4682.689220	0.090535	0.270564	11909.638672
4682.690301	0.090531	0.270564	12007.502930
4682.691287	0.090476	0.270564	12096.711914
4682.692175	0.090480	0.270564	12177.057617
4682.693145	0.090637	0.270564	12264.975586
4682.694190	0.090527	0.270564	12359.577148
4683.703824	1.511250	0.270745	766.203735
4683.704755	1.886019	0.270745	2522.087646
4683.705622	1.840437	0.270745	4117.746582
4683.706675	1.774241	0.270745	5986.021973
4683.707710	1.712267	0.270745	7758.218262
4683.708595	1.663063	0.270745	9230.029297
4683.709576	1.609303	0.270745	10808.755859
4683.710625	0.684221	0.270745	11526.503906
4683.711536	0.090531	0.270745	11608.977539
4683.712392	0.090410	0.270745	11686.368164
4683.713465	0.090612	0.270745	11783.594727
4683.714472	0.090428	0.270745	11874.656250
4683.715340	0.090425	0.270745	11953.144531
4683.716305	0.090498	0.270745	12040.475586
4683.717355	0.090472	0.270745	12135.471680
4683.718265	0.090502	0.270745	12217.828125
4683.719129	0.090502	0.270745	12296.021484
4683.720208	0.090538	0.270745	12393.711914
4684.770317	1.506574	0.279136	762.326233
4684.771261	1.885521	0.279136	2542.258301
4684.772135	1.839346	0.279136	4149.846191
4684.773176	1.773311	0.279136	5995.862305
4684.774215	1.711223	0.279136	7773.823242
4684.775110	1.660774	0.279136	9260.215820
4684.776066	1.609006	0.279136	10798.425781
4684.777138	0.624470	0.279136	11467.857422
4684.778071	0.090304	0.279136	11552.111328
4684.778931	0.090535	0.279136	11629.970703
4684.779989	0.090557	0.279136	11725.779297
4684.780991	0.090396	0.279136	11816.355469
4684.781881	0.090439	0.279136	11896.846680
4684.782838	0.090516	0.279136	11983.470703
4684.783867	0.090498	0.279136	12076.592773
4684.784777	0.090385	0.279136	12158.842773
4684.785639	0.090487	0.279136	12236.842773
4684.786721	0.090579	0.279136	12334.848633
4685.793796	1.506841	0.282818	745.886230
4685.794705	1.886927	0.282818	2461.103271
4685.795569	1.841162	0.282818	4051.867187
4685.796667	1.773622	0.282818	5999.303711
4685.797659	1.713530	0.282818	7699.125977
4685.798555	1.663077	0.282818	9189.243164
4685.799557	1.609340	0.282818	10801.801758
4685.800596	0.666200	0.282818	11493.983398
4685.801493	0.090425	0.282818	11575.094727
4685.802355	0.090454	0.282818	11653.066406
4685.803454	0.090571	0.282818	11752.604492
4685.804423	0.090513	0.282818	11840.311523
4685.805282	0.090491	0.282818	11918.042969
4685.806350	0.090524	0.282818	12014.722656
4685.807388	0.090447	0.282818	12108.606445
4685.808267	0.090396	0.282818	12188.064453
4685.809194	0.090535	0.282818	12271.990234
4685.810263	0.090579	0.282818	12368.818359
4686.860769	1.492797	0.281396	688.179199
4686.861647	1.888440	0.281396	2346.229492
4686.862624	1.841093	0.281396	4144.977051
4686.863688	1.773369	0.281396	6031.841797
4686.864607	1.717489	0.281396	7610.214355
4686.865475	1.666611	0.281396	9056.833008
4686.866564	1.608710	0.281396	10808.717773
4686.867557	0.713284	0.281396	11517.008789
4686.868450	0.090879	0.281396	11598.164062
4686.869462	0.090535	0.281396	11689.785156
4686.870507	0.090535	0.281396	11784.393555
4686.871385	0.090447	0.281396	11863.805664
4686.872242	0.090524	0.281396	11941.384766
4686.873359	0.090601	0.281396	12042.585937
4686.874319	0.090461	0.281396	12129.428711
4686.875178	0.090476	0.281396	12207.147461
4686.876235	0.090571	0.281396	12302.880859
4686.877273	0.090531	0.281396	12396.851562
4687.884234	1.444420	0.274524	626.878357
4687.885105	1.888971	0.274524	2272.171875
4687.886150	1.838481	0.274524	4193.384766
4687.887191	1.773212	0.274524	6039.297852
4687.888073	1.719163	0.274524	7555.599121
4687.889004	1.666582	0.274524	9107.187500
4687.890068	1.607688	0.274524	10817.767578
4687.891021	0.768113	0.274524	11549.779297
4687.891880	0.091278	0.274524	11628.187500
4687.892926	0.090645	0.274524	11723.001953
4687.893947	0.090502	0.274524	11815.404297
4687.894817	0.090568	0.274524	11894.198242
4687.895780	0.090586	0.274524	11981.432617
4687.896829	0.090634	0.274524	12076.506836
4687.897751	0.090597	0.274524	12160.037109
4687.898614	0.090516	0.274524	12238.152344
4687.899670	0.090648	0.274524	12333.876953
4687.900670	0.090520	0.274524	12424.396484
4688.951735	1.434188	0.273529	602.359070
4688.952769	1.884331	0.273529	2550.757324
4688.953802	1.829073	0.273529	4440.190430
4688.954698	1.772695	0.273529	6028.525391
4688.955661	1.715222	0.273529	7680.284180
4688.956728	1.655134	0.273529	9446.312500
4688.957652	1.603455	0.273529	10927.904297
4688.958535	0.762319	0.273529	11601.032227
4688.959605	0.090557	0.273529	11697.927734
4688.960607	0.090461	0.273529	11788.570312
4688.961499	0.090571	0.273529	11869.360352
4688.962469	0.090670	0.273529	11957.310547
4688.963516	0.090560	0.273529	12052.126953
4688.964421	0.090542	0.273529	12134.067383
4688.965279	0.090571	0.273529	12211.777344
4688.966370	0.090634	0.273529	12310.658203
4688.967362	0.090469	0.273529	12400.403320
4688.968247	0.090546	0.273529	12480.536133
4689.974211	1.443772	0.277283	625.153259
4689.975082	1.888447	0.277283	2269.990723
4689.976155	1.836698	0.277283	4240.767578
4689.977148	1.773673	0.277283	6002.024902
4689.978041	1.719800	0.277283	7537.806152
4689.979016	1.665399	0.277283	9161.570312
4689.980074	1.606871	0.277283	10861.640625
4689.980981	0.799541	0.277283	11586.824219
4689.981836	0.091604	0.277283	11665.145508
4689.982920	0.090593	0.277283	11763.348633
4689.983908	0.090469	0.277283	11852.731445
4689.984782	0.090483	0.277283	11931.813477
4689.985775	0.090608	0.277283	12021.787109
4689.986831	0.090476	0.277283	12117.330078
4689.987719	0.090498	0.277283	12197.692383
4689.988576	0.090516	0.277283	12275.264648
4689.989664	0.090568	0.277283	12373.801758
4689.990649	0.090531	0.277283	12462.974609
4691.042374	1.561304	0.298468	879.013977
4691.043436	1.879314	0.298468	2874.845215
4691.044330	1.827202	0.298468	4508.363770
4691.045204	1.769696	0.298468	6055.078125
4691.046319	1.705488	0.298468	7956.697754
4691.047286	1.652834	0.298468	9554.988281
4691.048151	1.603586	0.298468	10942.090820
4691.049199	0.546442	0.298468	11514.761719
4691.050221	0.090381	0.298468	11607.130859
4691.051103	0.090516	0.298468	11686.965820
4691.052028	0.090564	0.298468	11770.737305
4691.053078	0.090674	0.298468	11865.945312
4691.054016	0.090531	0.298468	11950.863281
4691.054875	0.090538	0.298468	12028.635742
4691.055927	0.090626	0.298468	12123.974609
4691.056932	0.090560	0.298468	12214.987305
4691.057801	0.090568	0.298468	12293.690430
4691.058743	0.090637	0.298468	12379.070312
4692.062802	1.584489	0.258237	903.158447
4692.063777	1.882635	0.258237	2738.728027
4692.064643	1.834420	0.258237	4327.335937
4692.065749	1.765331	0.258237	6279.791992
4692.066776	1.704137	0.258237	8029.940430
4692.067665	1.653999	0.258237	9500.345703
4692.068613	1.601726	0.258237	11018.782227
4692.069674	0.468574	0.258237	11515.939453
4692.070611	0.090355	0.258237	11600.602539
4692.071467	0.090593	0.258237	11678.150391
4692.072518	0.090582	0.258237	11773.352539
4692.073543	0.090502	0.258237	11866.117187
4692.074410	0.090491	0.258237	11944.572266
4692.075361	0.090575	0.258237	12030.708984
4692.076417	0.090538	0.258237	12126.317383
4692.077345	0.090502	0.258237	12210.302734
4692.078214	0.090557	0.258237	12288.996094
4692.079278	0.090593	0.258237	12385.387695
4693.132841	1.507119	0.273678	804.801636
4693.133802	1.884199	0.273678	2615.517090
4693.134728	1.834340	0.273678	4314.115723
4693.135597	1.778514	0.273678	5859.644531
4693.136634	1.717463	0.273678	7640.654297
4693.137517	1.666732	0.273678	9112.378906
4693.138386	1.617371	0.273678	10517.874023
4693.139398	0.954836	0.273678	11484.167969
4693.140364	0.091864	0.273678	11572.908203
4693.141239	0.090509	0.273678	11652.103516
4693.142119	0.090652	0.273678	11731.876953
4693.143224	0.090520	0.273678	11831.901367
4693.144115	0.090494	0.273678	11912.532227
4693.144983	0.090527	0.273678	11991.110352
4693.146031	0.090564	0.273678	12086.021484
4693.147015	0.090502	0.273678	12175.075195
4693.147891	0.090491	0.273678	12254.344727
4693.148758	0.090513	0.273678	12332.819336
4694.154169	1.435444	0.272252	604.322083
4694.155121	1.885906	0.272252	2399.704346
4694.156189	1.832113	0.272252	4356.400879
4694.157121	1.773391	0.272252	6009.201172
4694.157992	1.720122	0.272252	7507.427734
4694.159049	1.661602	0.272252	9263.740234
4694.160054	1.604857	0.272252	10876.621094
4694.160949	0.800665	0.272252	11593.216797
4694.161927	0.091575	0.272252	11682.777344
4694.162986	0.090557	0.272252	11778.676758
4694.163902	0.090502	0.272252	11861.576172
4694.164763	0.090546	0.272252	11939.536133
4694.165861	0.090560	0.272252	12038.971680
4694.166845	0.090487	0.272252	12128.010742
4694.167742	0.090527	0.272252	12209.213867
4694.168734	0.090626	0.272252	12299.115234
4694.169785	0.090546	0.272252	12394.278320
4694.170666	0.090542	0.272252	12474.045898
4695.223273	1.488838	0.277892	693.798462
4695.224144	1.888488	0.277892	2338.671143
4695.225111	1.841693	0.277892	4119.588379
4695.226163	1.774402	0.277892	5986.259277
4695.227089	1.718617	0.277892	7577.698730
4695.227962	1.668435	0.277892	9034.242187
4695.229057	1.608413	0.277892	10795.454102
4695.230060	0.706670	0.277892	11504.244141
4695.230946	0.090707	0.277892	11584.610352
4695.231931	0.090626	0.277892	11673.876953
4695.232982	0.090516	0.277892	11769.009766
4695.233877	0.090549	0.277892	11850.051758
4695.234739	0.090575	0.277892	11928.126953
4695.235839	0.090582	0.277892	12027.767578
4695.236813	0.090527	0.277892	12115.941406
4695.237675	0.090472	0.277892	12193.928711
4695.238748	0.090608	0.277892	12291.151367
4695.239769	0.090546	0.277892	12383.598633
4696.245237	1.465056	0.274999	706.157104
4696.246310	1.882493	0.274999	2726.071777
4696.247192	1.833127	0.274999	4342.890137
4696.248056	1.778130	0.274999	5879.194336
4696.249110	1.715405	0.274999	7687.231445
4696.250063	1.662173	0.274999	9271.282227
4696.250933	1.612350	0.274999	10674.026367
4696.251835	0.958015	0.274999	11538.156250
4696.252929	0.091150	0.274999	11637.874023
4696.253829	0.090443	0.274999	11719.272461
4696.254693	0.090542	0.274999	11797.500977
4696.255708	0.090619	0.274999	11889.479492
4696.256675	0.090443	0.274999	11976.937500
4696.257549	0.090575	0.274999	12056.099609
4696.258408	0.090575	0.274999	12133.903320
4696.259535	0.090476	0.274999	12235.870117
4696.260433	0.090571	0.274999	12317.203125
4696.261294	0.090505	0.274999	12395.127930
4697.313727	1.436880	0.285988	610.673950
4697.314595	1.889165	0.285988	2250.469238
4697.315610	1.840829	0.285988	4118.910156
4697.316591	1.779214	0.285988	5864.318848
4697.317466	1.725802	0.285988	7374.395508
4697.318330	1.674474	0.285988	8821.140625
4697.319438	1.615770	0.285988	10611.414062
4697.320340	1.079037	0.285988	11584.705078
4697.321203	0.098265	0.285988	11669.507812
4697.322329	0.090630	0.285988	11771.556641
4697.323280	0.090535	0.285988	11857.655273
4697.324139	0.090579	0.285988	11935.461914
4697.325178	0.090641	0.285988	12029.637695
4697.326206	0.090623	0.285988	12122.797852
4697.327085	0.090575	0.285988	12202.413086
4697.327985	0.090648	0.285988	12283.996094
4697.329069	0.090564	0.285988	12382.166992
4697.330025	0.090513	0.285988	12468.697266
4698.336231	1.487553	0.278842	693.199463
4698.337114	1.888436	0.278842	2360.688477
4698.338084	1.841334	0.278842	4146.782715
4698.339114	1.775325	0.278842	5975.367187
4698.340038	1.719899	0.278842	7564.553711
4698.340901	1.670420	0.278842	9006.125977
4698.341963	1.611899	0.278842	10717.962891
4698.342983	0.770775	0.278842	11504.153320
4698.343858	0.091201	0.278842	11583.954102
4698.344841	0.090505	0.278842	11672.920898
4698.345883	0.090557	0.278842	11767.281250
4698.346793	0.090597	0.278842	11849.724609
4698.347649	0.090513	0.278842	11927.203125
4698.348717	0.090659	0.278842	12024.027344
4698.349712	0.090542	0.278842	12114.116211
4698.350602	0.090575	0.278842	12194.727539
4698.351571	0.090674	0.278842	12282.590820
4698.352638	0.090593	0.278842	12379.253906
4699.404874	1.568328	0.290464	889.241699
4699.405928	1.879962	0.290464	2870.721680
4699.406811	1.828887	0.290464	4485.628906
4699.407695	1.770861	0.290464	6051.069336
4699.408776	1.708323	0.290464	7897.766113
4699.409738	1.655303	0.290464	9490.166992
4699.410609	1.606044	0.290464	10889.031250
4699.411615	0.649296	0.290464	11542.222656
4699.412669	0.090414	0.290464	11637.518555
4699.413556	0.090593	0.290464	11717.875000
4699.414477	0.090593	0.290464	11801.311523
4699.415548	0.090670	0.290464	11898.418945
4699.416489	0.090546	0.290464	11983.622070
4699.417360	0.090615	0.290464	12062.547852
4699.418399	0.090659	0.290464	12156.743164
4699.419427	0.090491	0.290464	12249.767578
4699.420320	0.090524	0.290464	12330.605469
4699.421264	0.090593	0.290464	12416.125977
4700.427192	1.431039	0.273171	602.467346
4700.428197	1.885214	0.273171	2497.106934
4700.429246	1.830809	0.273171	4417.625977
4700.430145	1.773563	0.273171	6012.059082
4700.431078	1.717434	0.273171	7614.424805
4700.432148	1.657804	0.273171	9388.275391
4700.433090	1.603832	0.273171	10899.084961
4700.433958	0.822323	0.273171	11612.861328
4700.434987	0.090879	0.273171	11706.375977
4700.436001	0.090538	0.273171	11798.181641
4700.436893	0.090553	0.273171	11878.955078
4700.437850	0.090623	0.273171	11965.680664
4700.438898	0.090612	0.273171	12060.641602
4700.439825	0.090494	0.273171	12144.530273
4700.440682	0.090520	0.273171	12222.105469
4700.441747	0.090590	0.273171	12318.583008
4700.442762	0.090520	0.273171	12410.460937
4700.443643	0.090571	0.273171	12490.253906
4701.493704	1.443933	0.275676	626.666992
4701.494564	1.889220	0.275676	2251.395996
4701.495597	1.841004	0.275676	4153.153809
4701.496499	1.781986	0.275676	5760.505371
4701.497408	1.727018	0.275676	7330.364258
4701.498288	1.675474	0.275676	8804.781250
4701.499343	1.618334	0.275676	10512.123047
4701.500243	1.172618	0.275676	11567.479492
4701.501112	0.104641	0.275676	11658.413086
4701.502211	0.090553	0.275676	11757.930664
4701.503131	0.090524	0.275676	11841.212891
4701.504010	0.090531	0.275676	11920.790039
4701.504988	0.090557	0.275676	12009.354492
4701.505985	0.090443	0.275676	12099.526367
4701.506864	0.090505	0.275676	12179.081055
4701.507724	0.090520	0.275676	12256.928711
4701.508788	0.090597	0.275676	12353.324219
4701.509702	0.090531	0.275676	12436.069336
4702.518309	1.523086	0.269211	784.389282
4702.519309	1.883470	0.269211	2667.859863
4702.520184	1.835339	0.269211	4273.781738
4702.521167	1.772904	0.269211	6016.546387
4702.522250	1.710070	0.269211	7868.551758
4702.523134	1.659357	0.269211	9335.422852
4702.524010	1.607816	0.269211	10743.870117
4702.525127	0.601479	0.269211	11415.722656
4702.526094	0.090297	0.269211	11503.039062
4702.526956	0.090560	0.269211	11581.101562
4702.527967	0.090626	0.269211	11672.724609
4702.529015	0.090524	0.269211	11767.593750
4702.529906	0.090623	0.269211	11848.338867
4702.530808	0.090630	0.269211	11930.086914
4702.531892	0.090560	0.269211	12028.253906
4702.532846	0.090520	0.269211	12114.610352
4702.533703	0.090586	0.269211	12192.242187
4702.534747	0.090615	0.269211	12286.844727
4703.583674	1.434869	0.290964	605.514832
4703.584734	1.884221	0.290964	2602.789307
4703.585739	1.830044	0.290964	4441.983398
4703.586636	1.773420	0.290964	6032.741211
4703.587620	1.715618	0.290964	7720.909180
4703.588668	1.656980	0.290964	9457.423828
4703.589584	1.604670	0.290964	10927.301758
4703.590454	0.790386	0.290964	11614.937500
4703.591556	0.090634	0.290964	11714.815430
4703.592536	0.090487	0.290964	11803.493164
4703.593412	0.090546	0.290964	11882.811523
4703.594400	0.090736	0.290964	11972.458984
4703.595445	0.090498	0.290964	12067.029297
4703.596329	0.090520	0.290964	12147.048828
4703.597193	0.090557	0.290964	12225.290039
4703.598273	0.090645	0.290964	12323.186523
4703.599240	0.090483	0.290964	12410.683594
4703.600116	0.090421	0.290964	12489.892578
4704.609234	1.455227	0.277549	644.665588
4704.610095	1.889114	0.277549	2271.192627
4704.611138	1.839071	0.277549	4189.343750
4704.612173	1.774072	0.277549	6025.508301
4704.613058	1.720063	0.277549	7547.764648
4704.613991	1.667062	0.277549	9103.132812
4704.615067	1.608073	0.277549	10833.418945
4704.616005	0.773829	0.277549	11559.270508
4704.616871	0.091348	0.277549	11638.377930
4704.617905	0.090648	0.277549	11732.108398
4704.618924	0.090557	0.277549	11824.385742
4704.619811	0.090524	0.277549	11904.680664
4704.620765	0.090652	0.277549	11991.162109
4704.621817	0.090641	0.277549	12086.516602
4704.622755	0.090560	0.277549	12171.461914
4704.623618	0.090586	0.277549	12249.637695
4704.624685	0.090630	0.277549	12346.339844
4704.625694	0.090491	0.277549	12437.644531
4705.673663	1.452964	0.282758	624.774475
4705.674526	1.887506	0.282758	2253.692383
4705.675592	1.837749	0.282758	4212.732910
4705.676483	1.781338	0.282758	5799.904785
4705.677360	1.728083	0.282758	7315.434082
4705.678359	1.673335	0.282758	8987.095703
4705.679301	1.618905	0.282758	10512.104492
4705.680240	1.131998	0.282758	11575.050781
4705.681102	0.101646	0.282758	11662.668945
4705.682137	0.090458	0.282758	11756.292969
4705.683020	0.090465	0.282758	11836.173828
4705.683883	0.090498	0.282758	11914.273437
4705.684829	0.090608	0.282758	11999.988281
4705.685803	0.090509	0.282758	12088.144531
4705.686721	0.090505	0.282758	12171.228516
4705.687598	0.090564	0.282758	12250.653320
4705.688621	0.090612	0.282758	12343.348633
4705.689525	0.090542	0.282758	12425.198242
4706.701309	1.498055	0.279551	738.541321
4706.702266	1.885646	0.279551	2543.104492
4706.703146	1.839584	0.279551	4161.938477
4706.704164	1.775940	0.279551	5969.845215
4706.705218	1.713153	0.279551	7775.508301
4706.706110	1.662151	0.279551	9258.146484
4706.706997	1.610837	0.279551	10686.958984
4706.708095	0.695072	0.279551	11450.148437
4706.709047	0.090374	0.279551	11536.183594
4706.709904	0.090443	0.279551	11613.693359
4706.710944	0.090630	0.279551	11707.948242
4706.711967	0.090546	0.279551	11800.576172
4706.712847	0.090465	0.279551	11880.185547
4706.713773	0.090546	0.279551	11964.031250
4706.714825	0.090626	0.279551	12059.370117
4706.715757	0.090531	0.279551	12143.745117
4706.716621	0.090491	0.279551	12221.928711
4706.717660	0.090641	0.279551	12316.104492
4707.762627	1.453422	0.282770	626.424744
4707.763499	1.888898	0.282770	2273.543457
4707.764522	1.839452	0.282770	4155.302734
4707.765505	1.776302	0.282770	5901.408203
4707.766437	1.721257	0.282770	7505.620117
4707.767306	1.669706	0.282770	8956.594727
4707.768429	1.610863	0.282770	10765.593750
4707.769322	0.929875	0.282770	11595.972656
4707.770213	0.093237	0.282770	11679.046875
4707.771309	0.090549	0.282770	11778.289062
4707.772269	0.090483	0.282770	11865.153320
4707.773140	0.090626	0.282770	11944.088867
4707.774176	0.090612	0.282770	12037.962891
4707.775188	0.090564	0.282770	12129.613281
4707.776082	0.090527	0.282770	12210.544922
4707.777004	0.090579	0.282770	12294.058594
4707.778042	0.090699	0.282770	12388.205078
4707.778990	0.090513	0.282770	12474.010742
4708.792266	1.448705	0.268820	633.083984
4708.793134	1.888835	0.268820	2272.593262
4708.794171	1.838412	0.268820	4179.026367
4708.795197	1.773904	0.268820	5999.051758
4708.796089	1.720159	0.268820	7533.433594
4708.797060	1.666245	0.268820	9151.357422
4708.798123	1.606886	0.268820	10859.477539
4708.799054	0.759836	0.268820	11566.884766
4708.799915	0.091274	0.268820	11645.471680
4708.800994	0.090670	0.268820	11743.304687
4708.801988	0.090553	0.268820	11833.314453
4708.802879	0.090553	0.268820	11913.997070
4708.803873	0.090634	0.268820	12004.086914
4708.804916	0.090568	0.268820	12098.548828
4708.805814	0.090487	0.268820	12179.806641
4708.806674	0.090579	0.268820	12257.704102
4708.807768	0.090593	0.268820	12356.813477
4708.808738	0.090516	0.268820	12444.614258
4709.852104	1.445504	0.274512	628.794250
4709.852970	1.889048	0.274512	2264.709717
4709.854005	1.839020	0.274512	4168.095215
4709.855026	1.774706	0.274512	5980.069824
4709.855926	1.720426	0.274512	7528.453125
4709.856888	1.667340	0.274512	9132.434570
4709.857959	1.606436	0.274512	10852.926758
4709.858901	0.744939	0.274512	11554.659180
4709.859764	0.091212	0.274512	11633.375000
4709.860839	0.090564	0.274512	11730.731445
4709.861821	0.090513	0.274512	11819.615234
4709.862709	0.090571	0.274512	11900.042969
4709.863683	0.090645	0.274512	11988.331055
4709.864721	0.090575	0.274512	12082.347656
4709.865630	0.090469	0.274512	12164.583984
4709.866491	0.090604	0.274512	12242.593750
4709.867566	0.090597	0.274512	12339.985352
4709.868557	0.090494	0.274512	12429.665039
4710.883269	1.442725	0.282379	624.699768
4710.884135	1.888964	0.282379	2260.542236
4710.885158	1.840635	0.282379	4143.511719
4710.886039	1.783652	0.282379	5714.909180
4710.886915	1.730903	0.282379	7231.180664
4710.887907	1.675576	0.282379	8893.352539
4710.888849	1.621047	0.282379	10420.378906
4710.889776	1.225796	0.282379	11556.691406
4710.890647	0.110449	0.282379	11652.892578
4710.891679	0.090439	0.282379	11746.226562
4710.892571	0.090575	0.282379	11827.019531
4710.893444	0.090560	0.282379	11906.079102
4710.894430	0.090604	0.282379	11995.415039
4710.895384	0.090461	0.282379	12081.714844
4710.896296	0.090520	0.282379	12164.269531
4710.897158	0.090553	0.282379	12242.326172
4710.898195	0.090619	0.282379	12336.297852
4710.899069	0.090520	0.282379	12415.412109
4711.941133	1.511411	0.268401	763.262573
4711.942046	1.886752	0.268401	2485.866699
4711.942908	1.841411	0.268401	4073.163086
4711.943955	1.775797	0.268401	5932.422852
4711.944970	1.714991	0.268401	7673.139160
4711.945861	1.665447	0.268401	9157.052734
4711.946845	1.610768	0.268401	10742.048828
4711.947908	0.691143	0.268401	11476.733398
4711.948818	0.090454	0.268401	11559.046875
4711.949677	0.090428	0.268401	11636.724609
4711.950772	0.090637	0.268401	11735.972656
4711.951740	0.090498	0.268401	11823.575195
4711.952623	0.090538	0.268401	11903.520508
4711.953624	0.090604	0.268401	11994.215820
4711.954680	0.090575	0.268401	12089.863281
4711.955564	0.090465	0.268401	12169.833984
4711.956426	0.090634	0.268401	12247.959961
4711.957526	0.090601	0.268401	12347.621094
4712.974830	1.502922	0.268288	710.882263
4712.975711	1.888063	0.268288	2374.265625
4712.976573	1.845278	0.268288	3964.895508
4712.977632	1.779324	0.268288	5849.199219
4712.978564	1.723125	0.268288	7455.151855
4712.979444	1.673782	0.268288	8928.080078
4712.980417	1.619956	0.268288	10504.296875
4712.981443	0.994050	0.268288	11524.192383
4712.982330	0.093933	0.268288	11607.510742
4712.983188	0.090396	0.268288	11685.070312
4712.984276	0.090597	0.268288	11783.639648
4712.985214	0.090513	0.268288	11868.541016
4712.986075	0.090568	0.268288	11946.519531
4712.987132	0.090656	0.268288	12042.342773
4712.988133	0.090447	0.268288	12132.879883
4712.989009	0.090597	0.268288	12212.243164
4712.989988	0.090568	0.268288	12300.909180
4712.991039	0.090615	0.268288	12396.145508
4714.030581	1.456490	0.284828	707.854309
4714.031575	1.884939	0.284828	2581.483643
4714.032494	1.835332	0.284828	4268.153809
4714.033373	1.779492	0.284828	5832.327637
4714.034439	1.716269	0.284828	7661.871094
4714.035350	1.664663	0.284828	9178.378906
4714.036231	1.615144	0.284828	10601.320312
4714.037117	1.030170	0.284828	11514.050781
4714.038159	0.091996	0.284828	11609.910156
4714.039047	0.090487	0.284828	11690.262695
4714.039918	0.090579	0.284828	11769.156250
4714.040919	0.090571	0.284828	11859.818359
4714.041841	0.090498	0.284828	11943.257812
4714.042703	0.090516	0.284828	12021.283203
4714.043678	0.090615	0.284828	12109.632812
4714.044694	0.090560	0.284828	12201.641602
4714.045588	0.090531	0.284828	12282.576172
4714.046450	0.090626	0.284828	12360.696289
4715.066393	1.493225	0.265319	774.983826
4715.067468	1.880372	0.265319	2796.383789
4715.068385	1.827726	0.265319	4472.408203
4715.069258	1.771663	0.265319	6019.069824
4715.070304	1.709897	0.265319	7807.622559
4715.071311	1.653820	0.265319	9473.018555
4715.072207	1.604114	0.265319	10910.304687
4715.073186	0.661538	0.265319	11557.950195
4715.074230	0.090436	0.265319	11652.365234
4715.075144	0.090557	0.265319	11735.133789
4715.076004	0.090597	0.265319	11813.046875
4715.077108	0.090575	0.265319	11913.041992
4715.078083	0.090502	0.265319	12001.281250
4715.078967	0.090524	0.265319	12081.303711
4715.079964	0.090590	0.265319	12171.621094
4715.080998	0.090586	0.265319	12265.287109
4715.081894	0.090597	0.265319	12346.461914
4715.082752	0.090645	0.265319	12424.235352
4716.120614	1.528129	0.283519	791.570618
4716.121546	1.885598	0.283519	2548.948242
4716.122409	1.839408	0.283519	4136.357422
4716.123471	1.773325	0.283519	6019.628906
4716.124494	1.712421	0.283519	7771.435059
4716.125375	1.662935	0.283519	9236.480469
4716.126356	1.608655	0.283519	10814.571289
4716.127419	0.628619	0.283519	11482.793945
4716.128316	0.090363	0.283519	11563.849609
4716.129184	0.090483	0.283519	11642.389648
4716.130247	0.090502	0.283519	11738.592773
4716.131238	0.090575	0.283519	11828.352539
4716.132133	0.090549	0.283519	11909.394531
4716.133109	0.090688	0.283519	11997.906250
4716.134165	0.090575	0.283519	12093.553711
4716.135073	0.090568	0.283519	12175.789062
4716.135938	0.090597	0.283519	12254.155273
4716.137015	0.090542	0.283519	12351.668945
4717.157427	1.544509	0.280800	820.134460
4717.158317	1.885851	0.280800	2498.541748
4717.159227	1.838595	0.280800	4171.663086
4717.160105	1.781016	0.280800	5735.394531
4717.161139	1.720221	0.280800	7514.103027
4717.162035	1.670072	0.280800	9010.487305
4717.162916	1.621260	0.280800	10438.817383
4717.163909	1.073925	0.280800	11505.224609
4717.164846	0.095050	0.280800	11594.286133
4717.165720	0.090403	0.280800	11673.297852
4717.166682	0.090674	0.280800	11760.526367
4717.167690	0.090465	0.280800	11851.714844
4717.168568	0.090454	0.280800	11931.133789
4717.169427	0.090502	0.280800	12008.875000
4717.170485	0.090619	0.280800	12104.750000
4717.171406	0.090505	0.280800	12188.105469
4717.172272	0.090524	0.280800	12266.499023
4717.173204	0.090582	0.280800	12350.921875
4718.210073	1.528326	0.277388	771.804810
4718.211061	1.883232	0.277388	2632.438477
4718.211951	1.835299	0.277388	4265.854492
4718.212951	1.772314	0.277388	6038.168945
4718.214010	1.709253	0.277388	7848.267578
4718.214907	1.658928	0.277388	9336.326172
4718.215772	1.608124	0.277388	10727.353516
4718.216896	0.609668	0.277388	11412.620117
4718.217866	0.090319	0.277388	11500.229492
4718.218737	0.090494	0.277388	11579.049805
4718.219788	0.090677	0.277388	11674.351562
4718.220818	0.090615	0.277388	11767.685547
4718.221707	0.090568	0.277388	11848.200195
4718.222634	0.090542	0.277388	11932.132812
4718.223712	0.090586	0.277388	12029.784180
4718.224651	0.090575	0.277388	12114.833984
4718.225512	0.090601	0.277388	12192.840820
4718.226562	0.090612	0.277388	12287.983398
4719.248829	1.442794	0.285187	613.187561
4719.249874	1.883448	0.285187	2581.391113
4719.250887	1.828876	0.285187	4434.041992
4719.251776	1.773303	0.285187	6010.508789
4719.252750	1.714929	0.285187	7680.849609
4719.253812	1.655215	0.285187	9438.687500
4719.254729	1.604520	0.285187	10910.032227
4719.255601	0.794052	0.285187	11602.445312
4719.256703	0.090557	0.285187	11702.238281
4719.257685	0.090505	0.285187	11791.114258
4719.258582	0.090571	0.285187	11872.356445
4719.259567	0.090593	0.285187	11961.590820
4719.260627	0.090527	0.285187	12057.549805
4719.261516	0.090549	0.285187	12138.047852
4719.262390	0.090571	0.285187	12217.207031
4719.263460	0.090619	0.285187	12314.168945
4719.264425	0.090604	0.285187	12401.601562
4719.265287	0.090498	0.285187	12479.611328
4720.298944	1.454821	0.268804	627.027649
4720.300044	1.881771	0.268804	2696.976074
4720.300999	1.829652	0.268804	4444.293945
4720.301866	1.774453	0.268804	5982.745117
4720.302909	1.712574	0.268804	7768.959961
4720.303946	1.654607	0.268804	9484.787109
4720.304824	1.605026	0.268804	10894.000000
4720.305763	0.765828	0.268804	11613.112305
4720.306820	0.090480	0.268804	11708.749023
4720.307763	0.090579	0.268804	11794.165039
4720.308630	0.090557	0.268804	11872.677734
4720.309663	0.090688	0.268804	11966.359375
4720.310678	0.090502	0.268804	12058.218750
4720.311575	0.090531	0.268804	12139.424805
4720.312530	0.090626	0.268804	12225.972656
4720.313574	0.090564	0.268804	12320.521484
4720.314507	0.090546	0.268804	12405.000977
4720.315418	0.090461	0.268804	12487.411133
4721.339456	1.578739	0.274951	861.991516
4721.340499	1.879878	0.274951	2822.704102
4721.341390	1.828953	0.274951	4452.300781
4721.342317	1.770483	0.274951	6093.539062
4721.343388	1.706678	0.274951	7921.391602
4721.344335	1.654069	0.274951	9487.794922
4721.345200	1.605978	0.274951	10876.965820
4721.346263	0.577548	0.274951	11490.898437
4721.347275	0.090370	0.274951	11582.352539
4721.348164	0.090520	0.274951	11662.825195
4721.349122	0.090531	0.274951	11749.553711
4721.350176	0.090571	0.274951	11845.015625
4721.351089	0.090652	0.274951	11927.781250
4721.351950	0.090502	0.274951	12005.703125
4721.353027	0.090659	0.274951	12103.342773
4721.354024	0.090560	0.274951	12193.631836
4721.354899	0.090623	0.274951	12272.926758
4721.355886	0.090615	0.274951	12362.364258
4722.389536	1.506921	0.278516	794.147583
4722.390548	1.881672	0.278516	2698.399902
4722.391445	1.832186	0.278516	4341.871094
4722.392312	1.775834	0.278516	5881.519043
4722.393400	1.711959	0.278516	7744.130859
4722.394333	1.660012	0.278516	9292.921875
4722.395209	1.611768	0.278516	10704.830078
4722.396190	0.850752	0.278516	11539.417969
4722.397198	0.090656	0.278516	11630.798828
4722.398083	0.090439	0.278516	11710.837891
4722.398943	0.090491	0.278516	11788.660156
4722.400004	0.090579	0.278516	11884.763672
4722.400922	0.090447	0.278516	11967.793945
4722.401777	0.090450	0.278516	12045.128906
4722.402844	0.090626	0.278516	12141.827148
4722.403857	0.090516	0.278516	12233.520508
4722.404727	0.090516	0.278516	12312.269531
4722.405692	0.090579	0.278516	12399.677734
4723.430376	1.497964	0.263523	705.541016
4723.431264	1.887561	0.263523	2381.695312
4723.432235	1.839441	0.263523	4167.792480
4723.433300	1.771985	0.263523	6054.956055
4723.434217	1.716291	0.263523	7628.795410
4723.435087	1.665751	0.263523	9077.998047
4723.436168	1.608025	0.263523	10816.273437
4723.437167	0.696522	0.263523	11512.099609
4723.438051	0.090575	0.263523	11592.167969
4723.439023	0.090560	0.263523	11680.192383
4723.440086	0.090524	0.263523	11776.418945
4723.440993	0.090465	0.263523	11858.470703
4723.441854	0.090535	0.263523	11936.420898
4723.442947	0.090538	0.263523	12035.378906
4723.443920	0.090454	0.263523	12123.390625
4723.444807	0.090505	0.263523	12203.668945
4723.445797	0.090648	0.263523	12293.411133
4723.446861	0.090461	0.263523	12389.662109
4724.479525	1.537101	0.276357	791.606934
4724.480493	1.883804	0.276357	2615.128906
4724.481368	1.836804	0.276357	4222.332520
4724.482392	1.772673	0.276357	6037.549805
4724.483447	1.710406	0.276357	7842.028320
4724.484331	1.659573	0.276357	9309.090820
4724.485219	1.608680	0.276357	10737.598633
4724.486335	0.628993	0.276357	11439.554687
4724.487285	0.090377	0.276357	11525.413086
4724.488150	0.090557	0.276357	11603.744141
4724.489174	0.090667	0.276357	11696.586914
4724.490209	0.090608	0.276357	11790.366211
4724.491096	0.090542	0.276357	11870.676758
4724.492038	0.090579	0.276357	11956.001953
4724.493091	0.090630	0.276357	12051.435547
4724.494029	0.090535	0.276357	12136.357422
4724.494894	0.090509	0.276357	12214.647461
4724.495958	0.090659	0.276357	12311.108398
4725.521851	1.432383	0.267551	603.033142
4725.522768	1.886137	0.267551	2332.620361
4725.523763	1.838979	0.267551	4162.404785
4725.524682	1.780924	0.267551	5799.074219
4725.525563	1.726908	0.267551	7320.479980
4725.526665	1.665945	0.267551	9156.351562
4725.527562	1.615624	0.267551	10605.566406
4725.528443	1.121199	0.267551	11593.342773
4725.529305	0.101133	0.267551	11680.519531
4725.530354	0.090432	0.267551	11775.382812
4725.531243	0.090535	0.267551	11855.868164
4725.532111	0.090487	0.267551	11934.411133
4725.533081	0.090582	0.267551	12022.276367
4725.534004	0.090487	0.267551	12105.795898
4725.534880	0.090538	0.267551	12185.107422
4725.535849	0.090615	0.267551	12272.914062
4725.536875	0.090461	0.267551	12365.727539
4725.537763	0.090538	0.267551	12446.125977
4726.569478	1.505738	0.275591	752.869263
4726.570421	1.885481	0.275591	2530.877686
4726.571287	1.839745	0.275591	4124.096680
4726.572334	1.774164	0.275591	5981.646484
4726.573364	1.712292	0.275591	7745.307617
4726.574249	1.662272	0.275591	9216.417969
4726.575211	1.610618	0.275591	10765.832031
4726.576266	0.685397	0.275591	11488.925781
4726.577188	0.090538	0.275591	11572.402344
4726.578046	0.090432	0.275591	11649.993164
4726.579104	0.090575	0.275591	11745.821289
4726.580123	0.090535	0.275591	11838.076172
4726.580994	0.090472	0.275591	11916.877930
4726.581953	0.090553	0.275591	12003.717773
4726.583010	0.090513	0.275591	12099.389648
4726.583924	0.090524	0.275591	12182.127930
4726.584786	0.090513	0.275591	12260.149414
4726.585860	0.090634	0.275591	12357.490234
4727.611969	1.526971	0.283604	858.157959
4727.613023	1.879215	0.283604	2838.850586
4727.613923	1.827136	0.283604	4483.272949
4727.614788	1.769821	0.283604	6014.167969
4727.615890	1.706180	0.283604	7894.378906
4727.616872	1.651699	0.283604	9516.347656
4727.617746	1.603726	0.283604	10918.003906
4727.618793	0.540476	0.283604	11483.882812
4727.619831	0.090341	0.283604	11577.656250
4727.620722	0.090436	0.283604	11658.234375
4727.621634	0.090597	0.283604	11740.858398
4727.622712	0.090513	0.283604	11838.430664
4727.623661	0.090425	0.283604	11924.244141
4727.624528	0.090491	0.283604	12002.699219
4727.625560	0.090612	0.283604	12096.209961
4727.626579	0.090505	0.283604	12188.434570
4727.627476	0.090450	0.283604	12269.568359
4727.628421	0.090549	0.283604	12355.137695
4728.660928	1.444691	0.289308	616.883118
4728.661947	1.883441	0.289308	2536.109619
4728.663010	1.829103	0.289308	4480.445801
4728.663894	1.771571	0.289308	6046.514648
4728.664763	1.716899	0.289308	7538.500000
4728.665873	1.657251	0.289308	9378.048828
4728.666838	1.604216	0.289308	10926.117187
4728.667755	0.726273	0.289308	11592.109375
4728.668631	0.090868	0.289308	11671.709961
4728.669669	0.090557	0.289308	11765.708008
4728.670564	0.090439	0.289308	11846.651367
4728.671438	0.090626	0.289308	11925.858398
4728.672316	0.090612	0.289308	12005.415039
4728.673361	0.090447	0.289308	12099.931641
4728.674259	0.090513	0.289308	12181.211914
4728.675135	0.090516	0.289308	12260.503906
4728.676139	0.090542	0.289308	12351.408203
4728.677059	0.090491	0.289308	12434.660156
4729.702940	1.523796	0.287262	783.231384
4729.703813	1.886763	0.287262	2430.375244
4729.704697	1.840426	0.287262	4057.312012
4729.705803	1.772878	0.287262	6018.115234
4729.706758	1.715277	0.287262	7656.205078
4729.707672	1.663517	0.287262	9176.659180
4729.708545	1.615397	0.287262	10586.900391
4729.709563	0.910979	0.287262	11514.277344
4729.710464	0.092131	0.287262	11597.288086
4729.711338	0.090487	0.287262	11676.374023
4729.712217	0.090586	0.287262	11755.999023
4729.713263	0.090520	0.287262	11850.682617
4729.714156	0.090579	0.287262	11931.569336
4729.715033	0.090604	0.287262	12011.029297
4729.716038	0.090597	0.287262	12102.079102
4729.716959	0.090487	0.287262	12185.417969
4729.717879	0.090557	0.287262	12268.730469
4729.718740	0.090553	0.287262	12346.696289
4730.751507	1.487930	0.283455	766.283813
4730.752575	1.880266	0.283455	2774.407959
4730.753488	1.828352	0.283455	4443.693359
4730.754356	1.772267	0.283455	5982.020996
4730.755421	1.709205	0.283455	7802.324707
4730.756428	1.653256	0.283455	9467.153320
4730.757318	1.604381	0.283455	10895.052734
4730.758293	0.671191	0.283455	11549.464844
4730.759344	0.090421	0.283455	11644.497070
4730.760252	0.090494	0.283455	11726.666016
4730.761110	0.090601	0.283455	11804.401367
4730.762197	0.090586	0.283455	11902.868164
4730.763179	0.090509	0.283455	11991.748047
4730.764062	0.090535	0.283455	12071.690430
4730.765043	0.090601	0.283455	12160.569336
4730.766085	0.090615	0.283455	12254.990234
4730.766981	0.090531	0.283455	12336.106445
4730.767841	0.090590	0.283455	12414.013672
4731.791889	1.509745	0.259337	762.421143
4731.792900	1.882712	0.259337	2665.843262
4731.793792	1.833732	0.259337	4301.531738
4731.794672	1.778108	0.259337	5866.266602
4731.795652	1.719939	0.259337	7551.806641
4731.796610	1.664751	0.259337	9146.638672
4731.797534	1.614888	0.259337	10638.794922
4731.798409	1.094044	0.259337	11596.083984
4731.799444	0.093959	0.259337	11693.331055
4731.800317	0.090461	0.259337	11772.303711
4731.801192	0.090560	0.259337	11851.543945
4731.802076	0.090557	0.259337	11931.595703
4731.803090	0.090524	0.259337	12023.386719
4731.804014	0.090579	0.259337	12107.081055
4731.804878	0.090571	0.259337	12185.334961
4731.805971	0.090615	0.259337	12284.376953
4731.806877	0.090608	0.259337	12366.467773
4731.807748	0.090516	0.259337	12445.307617
4732.841549	1.576432	0.270262	896.989746
4732.842609	1.878497	0.270262	2888.196777
4732.843505	1.826360	0.270262	4524.615234
4732.844404	1.768250	0.270262	6114.271484
4732.845489	1.705042	0.270262	7964.241699
4732.846451	1.651835	0.270262	9553.306641
4732.847318	1.603747	0.270262	10943.755859
4732.848354	0.565990	0.270262	11530.121094
4732.849382	0.090443	0.270262	11623.096680
4732.850260	0.090527	0.270262	11702.580078
4732.851123	0.090590	0.270262	11780.758789
4732.852049	0.090612	0.270262	11864.665039
4732.853038	0.090546	0.270262	11954.214844
4732.853949	0.090498	0.270262	12036.658203
4732.854834	0.090677	0.270262	12116.908203
4732.855880	0.090593	0.270262	12211.668945
4732.856779	0.090575	0.270262	12293.095703
4732.857651	0.090637	0.270262	12372.130859
4733.883336	1.462734	0.279024	640.677612
4733.884198	1.886550	0.279024	2266.884033
4733.885314	1.833633	0.279024	4313.218262
4733.886275	1.772974	0.279024	6017.045898
4733.887140	1.720302	0.279024	7505.106445
4733.888190	1.661503	0.279024	9249.684570
4733.889226	1.605121	0.279024	10912.589844
4733.890114	0.788610	0.279024	11612.875000
4733.891031	0.091505	0.279024	11696.785156
4733.892104	0.090648	0.279024	11794.050781
4733.893042	0.090513	0.279024	11878.952148
4733.893910	0.090575	0.279024	11957.571289
4733.894940	0.090659	0.279024	12050.950195
4733.895964	0.090557	0.279024	12143.680664
4733.896854	0.090608	0.279024	12224.321289
4733.897800	0.090681	0.279024	12310.105469
4733.898850	0.090630	0.279024	12405.266602
4733.899790	0.090597	0.279024	12490.427734
4734.932487	1.513030	0.286178	744.410645
4734.933374	1.886737	0.286178	2417.946289
4734.934317	1.838939	0.286178	4152.065918
4734.935376	1.771996	0.286178	6028.609375
4734.936314	1.715533	0.286178	7637.779785
4734.937182	1.665736	0.286178	9083.638672
4734.938250	1.608358	0.286178	10801.365234
4734.939274	0.668412	0.286178	11485.819336
4734.940148	0.090641	0.286178	11565.039062
4734.941125	0.090601	0.286178	11653.555664
4734.942184	0.090615	0.286178	11749.517578
4734.943094	0.090575	0.286178	11831.940430
4734.943953	0.090586	0.286178	11909.753906
4734.945011	0.090623	0.286178	12005.632812
4734.946008	0.090590	0.286178	12095.950195
4734.946887	0.090597	0.286178	12175.584961
4734.947858	0.090762	0.286178	12263.714844
4734.948909	0.090663	0.286178	12359.001953
4735.974447	1.526799	0.283422	827.525208
4735.975497	1.879497	0.283422	2800.997070
4735.976419	1.826906	0.283422	4485.404297
4735.977285	1.770044	0.283422	6018.262207
4735.978378	1.706766	0.283422	7883.757812
4735.979346	1.652256	0.283422	9483.141602
4735.980225	1.604385	0.283422	10893.395508
4735.981248	0.613048	0.283422	11520.543945
4735.982300	0.090406	0.283422	11615.651367
4735.983176	0.090531	0.283422	11694.956055
4735.984044	0.090586	0.283422	11773.584961
4735.985140	0.090641	0.283422	11872.927734
4735.986091	0.090502	0.283422	11958.995117
4735.986948	0.090443	0.283422	12036.504883
4735.987976	0.090674	0.283422	12129.717773
4735.989026	0.090531	0.283422	12224.775391
4735.989910	0.090560	0.283422	12304.831055
4735.990827	0.090626	0.283422	12387.935547
4737.022922	1.449891	0.265529	636.502319
4737.023786	1.887034	0.265529	2266.899414
4737.024873	1.834995	0.265529	4261.539062
4737.025853	1.771970	0.265529	5998.069824
4737.026748	1.718793	0.265529	7536.389160
4737.027741	1.662627	0.265529	9187.377930
4737.028799	1.605245	0.265529	10885.727539
4737.029709	0.758137	0.265529	11575.632812
4737.030575	0.091267	0.265529	11654.669922
4737.031678	0.090597	0.265529	11754.598633
4737.032627	0.090498	0.265529	11840.481445
4737.033496	0.090487	0.265529	11919.114258
4737.034541	0.090623	0.265529	12013.814453
4737.035591	0.090465	0.265529	12108.802734
4737.036480	0.090546	0.265529	12189.297852
4737.037399	0.090590	0.265529	12272.549805
4737.038460	0.090568	0.265529	12368.641602
4737.039410	0.090520	0.265529	12454.635742
4738.063289	1.433481	0.276373	602.062195
4738.064266	1.884620	0.276373	2443.336426
4738.065326	1.831652	0.276373	4384.887207
4738.066235	1.772955	0.276373	5996.503418
4738.067106	1.718082	0.276373	7492.953125
4738.068229	1.657222	0.276373	9354.012695
4738.069209	1.603722	0.276373	10925.660156
4738.070077	0.790642	0.276373	11611.937500
4738.071155	0.090718	0.276373	11709.731445
4738.072177	0.090498	0.276373	11802.220703
4738.073054	0.090527	0.276373	11881.613281
4738.073926	0.090531	0.276373	11960.556641
4738.074869	0.090608	0.276373	12046.000000
4738.075850	0.090472	0.276373	12134.753906
4738.076744	0.090472	0.276373	12215.636719
4738.077635	0.090549	0.276373	12296.316406
4738.078620	0.090502	0.276373	12385.460937
4738.079536	0.090546	0.276373	12468.400391
4739.114517	1.521090	0.286947	763.587219
4739.115524	1.882324	0.286947	2659.087646
4739.116418	1.833567	0.286947	4298.296387
4739.117385	1.772823	0.286947	6012.616699
4739.118441	1.709326	0.286947	7817.665039
4739.119368	1.657020	0.286947	9353.722656
4739.120235	1.608058	0.286947	10747.909180
4739.121328	0.630385	0.286947	11436.919922
4739.122315	0.090341	0.286947	11526.085937
4739.123199	0.090428	0.286947	11606.024414
4739.124194	0.090612	0.286947	11696.182617
4739.125234	0.090553	0.286947	11790.357422
4739.126130	0.090560	0.286947	11871.499023
4739.126991	0.090553	0.286947	11949.464844
4739.128089	0.090597	0.286947	12048.940430
4739.129040	0.090487	0.286947	12134.993164
4739.129910	0.090549	0.286947	12213.771484
4739.130927	0.090615	0.286947	12305.926758
4740.153268	1.429420	0.279974	598.927002
4740.154312	1.883547	0.279974	2565.350342
4740.155351	1.827968	0.279974	4464.608887
4740.156242	1.771556	0.279974	6043.065430
4740.157199	1.714761	0.279974	7684.091309
4740.158259	1.654977	0.279974	9438.367187
4740.159196	1.602990	0.279974	10940.368164
4740.160066	0.767856	0.279974	11608.403320
4740.161144	0.090549	0.279974	11706.015625
4740.162137	0.090601	0.279974	11795.982422
4740.163030	0.090597	0.279974	11876.885742
4740.164011	0.090659	0.279974	11965.822266
4740.165040	0.090571	0.279974	12059.020508
4740.165947	0.090553	0.279974	12141.152344
4740.166806	0.090535	0.279974	12218.921875
4740.167890	0.090637	0.279974	12317.172852
4740.168876	0.090549	0.279974	12406.454102
4740.169750	0.090465	0.279974	12485.520508
4741.205456	1.484205	0.285646	651.566101
4741.206343	1.887975	0.285646	2326.199707
4741.207342	1.838785	0.285646	4163.146484
4741.208400	1.772556	0.285646	6038.510742
4741.209307	1.717123	0.285646	7595.941406
4741.210197	1.664590	0.285646	9077.426758
4741.211305	1.605469	0.285646	10856.286133
4741.212267	0.717041	0.285646	11546.080078
4741.213132	0.090956	0.285646	11624.756836
4741.214174	0.090527	0.285646	11719.085937
4741.215209	0.090509	0.285646	11812.762695
4741.216099	0.090516	0.285646	11893.322266
4741.217038	0.090667	0.285646	11978.458008
4741.218087	0.090538	0.285646	12073.432617
4741.219017	0.090509	0.285646	12157.606445
4741.219875	0.090458	0.285646	12235.218750
4741.220927	0.090608	0.285646	12330.538086
4741.221934	0.090425	0.285646	12421.595703
4742.242754	1.441124	0.278427	616.801147
4742.243735	1.884701	0.278427	2465.692627
4742.244795	1.830571	0.278427	4406.098145
4742.245714	1.772278	0.278427	6034.821289
4742.246577	1.718815	0.278427	7518.158203
4742.247648	1.659891	0.278427	9295.902344
4742.248648	1.604106	0.278427	10900.008789
4742.249533	0.795234	0.278427	11603.791016
4742.250523	0.091663	0.278427	11694.537109
4742.251560	0.090586	0.278427	11788.474609
4742.252444	0.090564	0.278427	11868.533203
4742.253306	0.090560	0.278427	11946.595703
4742.254399	0.090601	0.278427	12045.622070
4742.255366	0.090549	0.278427	12133.183594
4742.256249	0.090557	0.278427	12213.145508
4742.257261	0.090645	0.278427	12304.877930
4742.258313	0.090637	0.278427	12400.228516
4742.259198	0.090568	0.278427	12480.380859
4743.297053	1.511558	0.288268	792.056213
4743.298109	1.880314	0.288268	2777.667480
4743.299020	1.828722	0.288268	4443.632812
4743.299886	1.771450	0.288268	5977.708496
4743.300998	1.707136	0.288268	7876.043945
4743.301958	1.653289	0.288268	9463.201172
4743.302846	1.604747	0.288268	10888.216797
4743.303864	0.615267	0.288268	11514.558594
4743.304916	0.090370	0.288268	11609.627930
4743.305812	0.090546	0.288268	11690.756836
4743.306713	0.090553	0.288268	11772.344727
4743.307777	0.090509	0.288268	11868.646484
4743.308724	0.090535	0.288268	11954.382812
4743.309586	0.090535	0.288268	12032.423828
4743.310614	0.090623	0.288268	12125.583984
4743.311636	0.090542	0.288268	12218.118164
4743.312517	0.090553	0.288268	12297.895508
4743.313453	0.090597	0.288268	12382.694336
4744.333243	1.432350	0.280168	608.748718
4744.334281	1.883661	0.280168	2563.988770
4744.335251	1.832860	0.280168	4341.863281
4744.336118	1.777064	0.280168	5882.578125
4744.337008	1.721341	0.280168	7414.572266
4744.338116	1.661459	0.280168	9255.468750
4744.339017	1.611313	0.280168	10707.261719
4744.339890	1.025669	0.280168	11602.670898
4744.340904	0.092725	0.280168	11696.693359
4744.341874	0.090498	0.280168	11784.476562
4744.342748	0.090465	0.280168	11863.542969
4744.343611	0.090579	0.280168	11941.711914
4744.344714	0.090597	0.280168	12041.640625
4744.345619	0.090546	0.280168	12123.583984
4744.346476	0.090568	0.280168	12201.200195
4744.347556	0.090765	0.280168	12299.226562
4744.348513	0.090579	0.280168	12385.910156
4744.349383	0.090582	0.280168	12464.716797
4745.388060	1.535186	0.276885	782.944641
4745.388950	1.886030	0.276885	2461.511719
4745.389831	1.841140	0.276885	4083.556152
4745.390761	1.781891	0.276885	5740.714844
4745.391747	1.722154	0.276885	7438.759277
4745.392659	1.670270	0.276885	8962.044922
4745.393567	1.621223	0.276885	10434.115234
4745.394601	1.035791	0.276885	11505.123047
4745.395499	0.095361	0.276885	11590.757812
4745.396371	0.090428	0.276885	11669.611328
4745.397386	0.090634	0.276885	11761.604492
4745.398375	0.090502	0.276885	11851.110352
4745.399260	0.090623	0.276885	11931.311523
4745.400116	0.090615	0.276885	12008.877930
4745.401195	0.090560	0.276885	12106.592773
4745.402105	0.090527	0.276885	12188.972656
4745.402986	0.090535	0.276885	12268.733398
4745.403974	0.090656	0.276885	12358.300781
4746.422211	1.440773	0.260522	613.769165
4746.423151	1.885657	0.260522	2386.286621
4746.424213	1.832692	0.260522	4332.604980
4746.425157	1.773062	0.260522	6006.375000
4746.426022	1.720056	0.260522	7494.223633
4746.427073	1.661913	0.260522	9240.894531
4746.428110	1.603275	0.260522	10903.490234
4746.428995	0.788815	0.260522	11601.590820
4746.429979	0.091578	0.260522	11691.704102
4746.431018	0.090549	0.260522	11785.785156
4746.431927	0.090568	0.260522	11868.111328
4746.432794	0.090454	0.260522	11946.535156
4746.433867	0.090560	0.260522	12043.706055
4746.434870	0.090436	0.260522	12134.413086
4746.435762	0.090560	0.260522	12215.193359
4746.436738	0.090568	0.260522	12303.586914
4746.437779	0.090538	0.260522	12397.836914
4746.438685	0.090487	0.260522	12479.818359
