time (s)	coil I (A)	last det (V)	int current (uC)
10396.762692	1.586565	1.634739	861.504761
10396.763598	1.902286	1.634739	2584.976074
10396.764462	1.852782	1.634739	4185.779785
10396.765579	0.547086	1.634739	4796.875000
10396.766544	0.090483	1.634739	4884.191406
10396.767419	0.090593	1.634739	4963.460449
10396.768436	0.090732	1.634739	5055.735352
10396.769488	0.090582	1.634739	5151.027832
10396.770365	0.090626	1.634739	5230.506836
10396.771234	0.090707	1.634739	5309.331055
10396.772343	0.090659	1.634739	5409.872070
10396.773296	0.090604	1.634739	5496.217773
10396.774156	0.090579	1.634739	5574.115234
10396.775173	0.090729	1.634739	5666.386230
10397.811129	1.453542	1.634843	614.848450
10397.812226	1.898379	1.634843	2697.369873
10397.813195	1.845374	1.634843	4485.537109
10397.814065	0.622174	1.634843	5026.828613
10397.815116	0.090634	1.634843	5122.084473
10397.816140	0.090634	1.634843	5214.893066
10397.817010	0.090641	1.634843	5293.750488
10397.817933	0.090699	1.634843	5377.466309
10397.819006	0.090670	1.634843	5474.755371
10397.819938	0.090663	1.634843	5559.252930
10397.820805	0.090630	1.634843	5637.829102
10397.821825	0.090718	1.634843	5730.361328
10397.822847	0.090688	1.634843	5823.044922
10397.823738	0.090670	1.634843	5903.832031
10398.853561	1.442003	1.634835	607.083313
10398.854476	1.903323	1.634835	2348.623779
10398.855541	1.849830	1.634835	4318.693359
10398.856507	0.617355	1.634835	4915.058105
10398.857420	0.090480	1.634835	4997.666016
10398.858283	0.090630	1.634835	5075.879395
10398.859307	0.090707	1.634835	5168.763184
10398.860189	0.090630	1.634835	5248.698730
10398.861061	0.090623	1.634835	5327.721680
10398.861963	0.090637	1.634835	5409.476562
10398.863005	0.090586	1.634835	5503.867187
10398.863887	0.090659	1.634835	5583.828613
10398.864763	0.090586	1.634835	5663.182129
10398.865759	0.090699	1.634835	5753.518555
10399.902249	1.555961	1.634751	810.655579
10399.903168	1.902187	1.634751	2558.765869
10399.904033	1.854196	1.634751	4162.645020
10399.905121	0.614117	1.634751	4830.804687
10399.906110	0.090491	1.634751	4920.299805
10399.906982	0.090612	1.634751	4999.312988
10399.907970	0.090721	1.634751	5088.945801
10399.909013	0.090656	1.634751	5183.499512
10399.909919	0.090623	1.634751	5265.603516
10399.910775	0.090619	1.634751	5343.173340
10399.911835	0.090729	1.634751	5439.345703
10399.912834	0.090652	1.634751	5529.906738
10399.913726	0.090619	1.634751	5610.738770
10399.914699	0.090659	1.634751	5698.950195
10400.946622	1.447694	1.634851	613.822266
10400.947517	1.903114	1.634851	2317.109375
10400.948613	1.848915	1.634851	4343.520020
10400.949569	0.608562	1.634851	4925.305176
10400.950437	0.090542	1.634851	5003.895508
10400.951467	0.090707	1.634851	5097.323730
10400.952494	0.090601	1.634851	5190.370605
10400.953386	0.090677	1.634851	5271.254883
10400.954299	0.090582	1.634851	5353.956543
10400.955163	0.090659	1.634851	5432.286133
10400.956121	0.090626	1.634851	5519.105957
10400.957073	0.090579	1.634851	5605.336914
10400.957957	0.090619	1.634851	5685.443848
10400.958938	0.090641	1.634851	5774.362305
10401.994247	1.473204	1.634714	736.602173
10401.995310	1.896541	1.634714	2752.624756
10401.996261	1.842843	1.634714	4505.168457
10401.997183	0.473763	1.634714	4941.978516
10401.998046	0.090483	1.634714	5020.065918
10401.999081	0.090575	1.634714	5113.811035
10401.999959	0.090667	1.634714	5193.416016
10402.000827	0.090615	1.634714	5272.069824
10402.001763	0.090692	1.634714	5356.957520
10402.002732	0.090659	1.634714	5444.806152
10402.003653	0.090626	1.634714	5528.272949
10402.004533	0.090623	1.634714	5608.020996
10402.005547	0.090637	1.634714	5699.927246
10402.006465	0.090630	1.634714	5783.125488
10403.037768	1.564138	1.634731	883.738098
10403.038825	1.895182	1.634731	2886.945312
10403.039713	1.843297	1.634731	4523.792969
10403.040589	0.564382	1.634731	5018.191895
10403.041686	0.090623	1.634731	5117.604980
10403.042652	0.090553	1.634731	5205.079102
10403.043510	0.090615	1.634731	5282.827148
10403.044556	0.090699	1.634731	5377.698730
10403.045586	0.090593	1.634731	5471.009766
10403.046470	0.090667	1.634731	5551.159180
10403.047385	0.090685	1.634731	5634.135742
10403.048464	0.090667	1.634731	5731.964844
10403.049407	0.090637	1.634731	5817.435547
10403.050274	0.090652	1.634731	5896.030762
10404.084150	1.448957	1.634392	607.113159
10404.085253	1.897987	1.634392	2700.592773
10404.086181	1.846670	1.634392	4414.302246
10404.087065	0.660363	1.634392	4998.062500
10404.088055	0.090890	1.634392	5088.043457
10404.089056	0.090579	1.634392	5178.712891
10404.089941	0.090597	1.634392	5258.891113
10404.090800	0.090641	1.634392	5336.751465
10404.091870	0.090615	1.634392	5433.709961
10404.092779	0.090593	1.634392	5516.059082
10404.093650	0.090634	1.634392	5595.000977
10404.094624	0.090743	1.634392	5683.385254
10404.095633	0.090582	1.634392	5774.782715
10404.096508	0.090652	1.634392	5854.103027
10405.128717	1.531062	1.634783	760.937805
10405.129599	1.904180	1.634783	2440.424072
10405.130528	1.854877	1.634783	4163.604492
10405.131604	0.624668	1.634783	4835.747070
10405.132537	0.090494	1.634783	4920.178223
10405.133396	0.090590	1.634783	4997.994629
10405.134448	0.090645	1.634783	5093.352539
10405.135468	0.090634	1.634783	5185.798828
10405.136339	0.090597	1.634783	5264.708984
10405.137278	0.090670	1.634783	5349.848145
10405.138338	0.090630	1.634783	5445.916016
10405.139269	0.090615	1.634783	5530.278809
10405.140137	0.090630	1.634783	5608.945312
10405.141196	0.090791	1.634783	5705.092773
10406.176189	1.444406	1.635061	609.539124
10406.177122	1.902052	1.635061	2384.153564
10406.178191	1.847684	1.635061	4359.328125
10406.179138	0.592057	1.635061	4920.005859
10406.180004	0.090535	1.635061	4998.408691
10406.181047	0.090707	1.635061	5093.015625
10406.182068	0.090590	1.635061	5185.507812
10406.182955	0.090560	1.635061	5265.834961
10406.183912	0.090663	1.635061	5352.599121
10406.184964	0.090652	1.635061	5447.964844
10406.185887	0.090608	1.635061	5531.595703
10406.186749	0.090681	1.635061	5609.762695
10406.187818	0.090758	1.635061	5706.783203
10406.188813	0.090604	1.635061	5796.934570
10407.220717	1.469689	1.634706	698.102173
10407.221781	1.898445	1.634706	2718.047363
10407.222686	1.847692	1.634706	4390.208008
10407.223558	0.697500	1.634706	4998.427734
10407.224620	0.090641	1.634706	5094.688477
10407.225587	0.090560	1.634706	5182.260254
10407.226460	0.090604	1.634706	5261.357910
10407.227349	0.090696	1.634706	5341.986328
10407.228442	0.090626	1.634706	5441.041016
10407.229316	0.090590	1.634706	5520.216309
10407.230191	0.090659	1.634706	5599.542969
10407.231305	0.090740	1.634706	5700.626953
10407.232251	0.090586	1.634706	5786.321289
10407.233116	0.090663	1.634706	5864.744629
10408.267338	1.580903	1.634932	888.467651
10408.268383	1.895526	1.634932	2869.292480
10408.269268	1.844473	1.634932	4501.650879
10408.270186	0.587717	1.634932	5041.175293
10408.271267	0.090575	1.634932	5139.086914
10408.272206	0.090579	1.634932	5224.140137
10408.273063	0.090593	1.634932	5301.778320
10408.274080	0.090710	1.634932	5394.030762
10408.275106	0.090571	1.634932	5486.957031
10408.275998	0.090582	1.634932	5567.756348
10408.276939	0.090623	1.634932	5653.032227
10408.278003	0.090626	1.634932	5749.458496
10408.278935	0.090619	1.634932	5833.915527
10408.279800	0.090634	1.634932	5912.313477
10409.311723	1.506097	1.634565	707.865784
10409.312605	1.905278	1.634565	2388.321289
10409.313570	1.855228	1.634565	4178.616211
10409.314628	0.628894	1.634565	4843.986328
10409.315557	0.090385	1.634565	4927.953613
10409.316420	0.090623	1.634565	5006.160645
10409.317485	0.090729	1.634565	5102.786621
10409.318489	0.090557	1.634565	5193.705566
10409.319370	0.090615	1.634565	5273.537598
10409.320358	0.090688	1.634565	5363.137695
10409.321402	0.090590	1.634565	5457.713379
10409.322313	0.090593	1.634565	5540.243652
10409.323171	0.090604	1.634565	5617.981934
10409.324245	0.090758	1.634565	5715.456055
10410.359241	1.454755	1.634763	632.818237
10410.360243	1.900162	1.634763	2536.780762
10410.361288	1.845597	1.634763	4465.429687
10410.362204	0.552865	1.634763	4971.854004
10410.363060	0.090509	1.634763	5049.329590
10410.364124	0.090641	1.634763	5145.771484
10410.365126	0.090450	1.634763	5236.402832
10410.365997	0.090549	1.634763	5315.271484
10410.366968	0.090648	1.634763	5403.291016
10410.368006	0.090703	1.634763	5497.440918
10410.368915	0.090608	1.634763	5579.803711
10410.369773	0.090608	1.634763	5657.545410
10410.370859	0.090696	1.634763	5756.041016
10410.371839	0.090564	1.634763	5844.793457
10411.402684	1.448390	1.634827	618.462463
10411.403697	1.900499	1.634827	2543.668213
10411.404750	1.844681	1.634827	4486.117676
10411.405650	0.542428	1.634827	4974.302734
10411.406576	0.090524	1.634827	5058.127441
10411.407640	0.090736	1.634827	5154.670410
10411.408584	0.090564	1.634827	5240.162598
10411.409448	0.090582	1.634827	5318.425781
10411.410498	0.090773	1.634827	5413.737305
10411.411512	0.090619	1.634827	5505.625000
10411.412400	0.090524	1.634827	5586.010254
10411.413343	0.090743	1.634827	5671.581055
10411.414404	0.090681	1.634827	5767.793945
10411.415327	0.090615	1.634827	5851.431641
10412.450329	1.539478	1.634408	789.752014
10412.451372	1.897416	1.634408	2768.756592
10412.452273	1.846461	1.634408	4432.417969
10412.453229	0.623705	1.634408	5028.679687
10412.454280	0.090542	1.634408	5123.839355
10412.455216	0.090637	1.634408	5208.675781
10412.456082	0.090571	1.634408	5287.110352
10412.457146	0.090751	1.634408	5383.668945
10412.458149	0.090619	1.634408	5474.559570
10412.459025	0.090601	1.634408	5553.925781
10412.460002	0.090699	1.634408	5642.539062
10412.461039	0.090725	1.634408	5736.621094
10412.461958	0.090641	1.634408	5819.919922
10412.462815	0.090648	1.634408	5897.605469
10413.494755	1.502871	1.634936	688.314941
10413.495636	1.905289	1.634936	2366.874756
10413.496633	1.853610	1.634936	4214.923340
10413.497688	0.612444	1.634936	4861.051758
10413.498578	0.090428	1.634936	4941.533203
10413.499444	0.090586	1.634936	5019.980469
10413.500522	0.090659	1.634936	5117.710937
10413.501519	0.090505	1.634936	5207.944824
10413.502417	0.090670	1.634936	5289.366699
10413.503401	0.090699	1.634936	5378.614746
10413.504457	0.090604	1.634936	5474.292969
10413.505346	0.090582	1.634936	5554.820801
10413.506211	0.090626	1.634936	5633.212402
10413.507318	0.090718	1.634936	5733.637207
10414.543413	1.578625	1.631593	846.143250
10414.544451	1.896116	1.631593	2814.311279
10414.545348	1.845245	1.631593	4469.496094
10414.546283	0.601274	1.631593	5031.687500
10414.547353	0.090571	1.631593	5128.598633
10414.548286	0.090582	1.631593	5213.111816
10414.549205	0.090593	1.631593	5296.367187
10414.550067	0.090626	1.631593	5374.486816
10414.551105	0.090579	1.631593	5468.507324
10414.551994	0.090579	1.631593	5549.031738
10414.552865	0.090619	1.631593	5627.960937
10414.553786	0.090674	1.631593	5711.471680
10414.554810	0.090568	1.631593	5804.212891
10414.555727	0.090663	1.631593	5887.350586
10415.585726	1.447841	1.634722	618.227905
10415.586591	1.905736	1.634722	2266.689453
10415.587654	1.853910	1.634722	4237.395508
10415.588552	0.848771	1.634722	4999.591797
10415.589412	0.091359	1.634722	5078.160156
10415.590299	0.090714	1.634722	5158.623535
10415.591312	0.090597	1.634722	5250.398437
10415.592237	0.090612	1.634722	5334.214355
10415.593117	0.090677	1.634722	5414.010742
10415.594113	0.090732	1.634722	5504.380371
10415.595035	0.090597	1.634722	5587.910645
10415.595902	0.090615	1.634722	5666.474121
10415.596901	0.090740	1.634722	5757.123047
10415.597897	0.090652	1.634722	5847.412109
10416.633372	1.538481	1.634698	783.087036
10416.634396	1.898148	1.634698	2726.791016
10416.635276	1.849153	1.634698	4354.045410
10416.636241	0.650017	1.634698	4981.312012
10416.637306	0.090527	1.634698	5077.723633
10416.638220	0.090656	1.634698	5160.583008
10416.639087	0.090663	1.634698	5239.187500
10416.640156	0.090703	1.634698	5336.148926
10416.641149	0.090593	1.634698	5426.107910
10416.642039	0.090615	1.634698	5506.755371
10416.643014	0.090681	1.634698	5595.169434
10416.644076	0.090641	1.634698	5691.430176
10416.644974	0.090575	1.634698	5772.766602
10416.645833	0.090645	1.634698	5850.630371
10417.676760	1.462383	1.634666	665.384155
10417.677773	1.900492	1.634666	2590.582520
10417.678705	1.850196	1.634666	4314.965820
10417.679577	0.772350	1.634666	4988.455078
10417.680661	0.090575	1.634666	5086.638184
10417.681549	0.090597	1.634666	5167.088379
10417.682422	0.090601	1.634666	5246.182617
10417.683428	0.090762	1.634666	5337.488770
10417.684412	0.090612	1.634666	5426.650391
10417.685301	0.090641	1.634666	5507.229980
10417.686156	0.090623	1.634666	5584.712402
10417.687210	0.090718	1.634666	5680.329102
10417.688118	0.090608	1.634666	5762.601074
10417.688995	0.090637	1.634666	5842.089844
10418.725310	1.443853	1.634449	615.081177
10418.726350	1.900045	1.634449	2591.128418
10418.727381	1.845066	1.634449	4493.391602
10418.728267	0.578144	1.634449	5005.627441
10418.729192	0.090641	1.634449	5089.470215
10418.730271	0.090630	1.634449	5187.259766
10418.731199	0.090593	1.634449	5271.330078
10418.732069	0.090663	1.634449	5350.206543
10418.733086	0.090626	1.634449	5442.373535
10418.734098	0.090656	1.634449	5534.116699
10418.734984	0.090593	1.634449	5614.382324
10418.735924	0.090674	1.634449	5699.615723
10418.736976	0.090740	1.634449	5795.073730
10418.737914	0.090579	1.634449	5880.036621
10419.768764	1.448683	1.634698	620.036255
10419.769627	1.904747	1.634698	2263.833008
10419.770690	1.853112	1.634698	4233.690430
10419.771585	0.832123	1.634698	4978.440430
10419.772459	0.091289	1.634698	5058.227051
10419.773415	0.090656	1.634698	5144.893555
10419.774382	0.090619	1.634698	5232.521973
10419.775257	0.090659	1.634698	5311.848633
10419.776170	0.090663	1.634698	5394.624023
10419.777248	0.090623	1.634698	5492.314941
10419.778127	0.090626	1.634698	5571.975586
10419.778983	0.090630	1.634698	5649.554687
10419.779991	0.090688	1.634698	5740.968750
10419.780968	0.090630	1.634698	5829.514160
10420.816438	1.558520	1.634489	855.627747
10420.817437	1.897423	1.634489	2751.153320
10420.818331	1.847640	1.634489	4402.943848
10420.819199	0.700027	1.634489	5010.567383
10420.820291	0.090487	1.634489	5109.379395
10420.821192	0.090615	1.634489	5191.023926
10420.822050	0.090579	1.634489	5268.740234
10420.823135	0.090736	1.634489	5367.188965
10420.824124	0.090502	1.634489	5456.695312
10420.825006	0.090557	1.634489	5536.566406
10420.826000	0.090608	1.634489	5626.630859
10420.827055	0.090553	1.634489	5722.164062
10420.827927	0.090597	1.634489	5801.164551
10420.828794	0.090630	1.634489	5879.740723
10421.859862	1.527202	1.634686	781.927490
10421.860810	1.901374	1.634686	2584.430420
10421.861676	1.854104	1.634686	4190.084473
10421.862701	0.670763	1.634686	4877.616699
10421.863728	0.090436	1.634686	4970.494141
10421.864617	0.090557	1.634686	5050.999023
10421.865549	0.090568	1.634686	5135.408203
10421.866630	0.090663	1.634686	5233.414551
10421.867571	0.090579	1.634686	5318.648926
10421.868436	0.090579	1.634686	5396.999512
10421.869493	0.090725	1.634686	5492.895996
10421.870505	0.090571	1.634686	5584.554199
10421.871392	0.090560	1.634686	5664.881348
10421.872339	0.090586	1.634686	5750.666016
10422.907340	1.457358	1.634787	638.322937
10422.908207	1.905868	1.634787	2290.710449
10422.909238	1.854038	1.634787	4202.223633
10422.910275	0.627880	1.634787	4853.334961
10422.911166	0.090461	1.634787	4933.936035
10422.912070	0.090604	1.634787	5015.842285
10422.913137	0.090626	1.634787	5112.540527
10422.914080	0.090597	1.634787	5197.973633
10422.914942	0.090524	1.634787	5276.004883
10422.915986	0.090714	1.634787	5370.710449
10422.917008	0.090634	1.634787	5463.337891
10422.917880	0.090557	1.634787	5542.303223
10422.918803	0.090575	1.634787	5625.903809
10422.919880	0.090637	1.634787	5723.520020
10423.951806	1.463683	1.634581	620.601562
10423.952910	1.897639	1.634581	2715.595215
10423.953872	1.844670	1.634581	4490.167969
10423.954738	0.618658	1.634581	5025.926270
10423.955778	0.090553	1.634581	5120.101562
10423.956828	0.090560	1.634581	5215.189941
10423.957699	0.090524	1.634581	5294.036133
10423.958592	0.090615	1.634581	5374.955566
10423.959674	0.090619	1.634581	5473.005371
10423.960613	0.090542	1.634581	5558.024414
10423.961481	0.090575	1.634581	5636.643555
10423.962501	0.090656	1.634581	5729.112305
10423.963525	0.090546	1.634581	5821.831055
10423.964412	0.090531	1.634581	5902.131836
10424.998327	1.452913	1.634916	614.582092
10424.999440	1.897090	1.634916	2726.043213
10425.000414	1.843129	1.634916	4521.250488
10425.001288	0.564371	1.634916	5014.511230
10425.002334	0.090524	1.634916	5109.199219
10425.003367	0.090516	1.634916	5202.702637
10425.004253	0.090590	1.634916	5282.964844
10425.005153	0.090575	1.634916	5364.482422
10425.006240	0.090626	1.634916	5462.993164
10425.007203	0.090516	1.634916	5550.160645
10425.008069	0.090571	1.634916	5628.595215
10425.009101	0.090663	1.634916	5722.159180
10425.010128	0.090531	1.634916	5815.134277
10425.011005	0.090590	1.634916	5894.581543
10426.043862	1.479562	1.634666	651.007202
10426.044736	1.905622	1.634666	2316.521240
10426.045716	1.856660	1.634666	4136.048340
10426.046744	0.701433	1.634666	4857.121582
10426.047627	0.090623	1.634666	4937.141113
10426.048483	0.090688	1.634666	5014.770508
10426.049510	0.090681	1.634666	5107.899902
10426.050452	0.090531	1.634666	5193.180176
10426.051332	0.090597	1.634666	5272.905273
10426.052262	0.090674	1.634666	5357.231934
10426.053308	0.090575	1.634666	5451.973145
10426.054196	0.090630	1.634666	5532.452637
10426.055117	0.090703	1.634666	5615.990234
10426.056180	0.090696	1.634666	5712.399902
10427.090382	1.458204	1.634557	637.235291
10427.091244	1.905249	1.634557	2279.559814
10427.092279	1.852844	1.634557	4197.253906
10427.093298	0.629875	1.634557	4839.097168
10427.094183	0.090447	1.634557	4919.142578
10427.095141	0.090688	1.634557	5006.021973
10427.096184	0.090634	1.634557	5100.552734
10427.097110	0.090535	1.634557	5184.387695
10427.097978	0.090590	1.634557	5263.019531
10427.099028	0.090784	1.634557	5358.342285
10427.100024	0.090542	1.634557	5448.521973
10427.100913	0.090579	1.634557	5529.046387
10427.101873	0.090681	1.634557	5616.100098
10427.102903	0.090593	1.634557	5709.411133
10428.134905	1.470410	1.634775	716.089783
10428.135981	1.896368	1.634775	2756.582275
10428.136921	1.843301	1.634775	4489.285156
10428.137791	0.580730	1.634775	4994.520020
10428.138860	0.090608	1.634775	5091.379883
10428.139869	0.090590	1.634775	5182.784668
10428.140765	0.090553	1.634775	5263.919922
10428.141716	0.090696	1.634775	5350.171875
10428.142755	0.090725	1.634775	5444.435059
10428.143674	0.090623	1.634775	5527.717285
10428.144533	0.090593	1.634775	5605.537109
10428.145597	0.090677	1.634775	5702.018066
10428.146599	0.090648	1.634775	5792.847656
10428.147476	0.090626	1.634775	5872.326660
10429.181421	1.464781	1.634815	695.771179
10429.182500	1.896757	1.634815	2742.371582
10429.183448	1.843843	1.634815	4490.334473
10429.184317	0.590424	1.634815	5003.412598
10429.185355	0.090685	1.634815	5097.543457
10429.186382	0.090641	1.634815	5190.631836
10429.187255	0.090641	1.634815	5269.761230
10429.188201	0.090674	1.634815	5355.538574
10429.189246	0.090765	1.634815	5450.388184
10429.190174	0.090718	1.634815	5534.574219
10429.191041	0.090721	1.634815	5613.229492
10429.192076	0.090773	1.634815	5707.179199
10429.193085	0.090648	1.634815	5798.643066
10429.193975	0.090677	1.634815	5879.346191
10430.225932	1.515623	1.634722	762.358154
10430.226846	1.902993	1.634722	2501.693848
10430.227712	1.855258	1.634722	4108.346680
10430.228798	0.646176	1.634722	4810.093262
10430.229798	0.090487	1.634722	4900.580078
10430.230691	0.090670	1.634722	4981.548340
10430.231674	0.090780	1.634722	5070.785156
10430.232736	0.090696	1.634722	5167.104004
10430.233635	0.090648	1.634722	5248.596680
10430.234497	0.090721	1.634722	5326.798340
10430.235591	0.090740	1.634722	5426.067383
10430.236559	0.090568	1.634722	5513.736816
10430.237418	0.090659	1.634722	5591.613281
10430.238522	0.090776	1.634722	5691.830566
10431.273408	1.451536	1.634807	625.611877
10431.274273	1.904443	1.634807	2272.955322
10431.275362	1.850783	1.634807	4288.457520
10431.276361	0.581393	1.634807	4869.269043
10431.277241	0.090509	1.634807	4948.916992
10431.278234	0.090762	1.634807	5039.043457
10431.279282	0.090721	1.634807	5134.119629
10431.280179	0.090612	1.634807	5215.398437
10431.281038	0.090696	1.634807	5293.306152
10431.282133	0.090787	1.634807	5392.718262
10431.283091	0.090677	1.634807	5479.587402
10431.283963	0.090648	1.634807	5558.632812
10431.284953	0.090809	1.634807	5648.534180
10431.286020	0.090659	1.634807	5745.267578
10432.316867	1.450532	1.634666	619.377258
10432.317783	1.902232	1.634666	2361.821289
10432.318854	1.848215	1.634666	4341.259766
10432.319808	0.599216	1.634666	4912.912109
10432.320680	0.090513	1.634666	4991.839355
10432.321701	0.090758	1.634666	5084.503418
10432.322726	0.090579	1.634666	5177.346680
10432.323617	0.090699	1.634666	5258.159668
10432.324557	0.090656	1.634666	5343.375977
10432.325623	0.090692	1.634666	5440.053711
10432.326555	0.090553	1.634666	5524.449219
10432.327416	0.090590	1.634666	5602.446777
10432.328483	0.090659	1.634666	5699.180176
10432.329487	0.090538	1.634666	5790.080566
10433.365515	1.517915	1.634714	760.475464
10433.366444	1.902437	1.634714	2527.839111
10433.367308	1.855587	1.634714	4131.066406
10433.368391	0.636775	1.634714	4820.693359
10433.369389	0.090538	1.634714	4911.050781
10433.370284	0.090604	1.634714	4992.141602
10433.371252	0.090740	1.634714	5079.977539
10433.372284	0.090703	1.634714	5173.583008
10433.373194	0.090564	1.634714	5255.996094
10433.374052	0.090593	1.634714	5333.725098
10433.375129	0.090670	1.634714	5431.376953
10433.376123	0.090619	1.634714	5521.452148
10433.377000	0.090623	1.634714	5600.928223
10433.378000	0.090710	1.634714	5691.638672
10434.408021	1.590000	1.634662	922.199951
10434.409072	1.894006	1.634662	2912.800537
10434.409955	1.842638	1.634662	4539.849609
10434.410852	0.552246	1.634662	5035.214355
10434.411925	0.090593	1.634662	5132.420898
10434.412875	0.090553	1.634662	5218.446289
10434.413736	0.090604	1.634662	5296.456543
10434.414777	0.090754	1.634662	5390.931641
10434.415814	0.090564	1.634662	5484.846680
10434.416684	0.090601	1.634662	5563.668945
10434.417613	0.090710	1.634662	5647.938965
10434.418685	0.090656	1.634662	5745.121582
10434.419624	0.090582	1.634662	5830.178223
10434.420490	0.090615	1.634662	5908.650879
10435.457542	1.478097	1.634742	742.004639
10435.458623	1.895533	1.634742	2791.076172
10435.459551	1.842440	1.634742	4500.860840
10435.460428	0.551287	1.634742	4984.339355
10435.461470	0.090579	1.634742	5078.722168
10435.462487	0.090469	1.634742	5170.729004
10435.463378	0.090513	1.634742	5251.375977
10435.464319	0.090656	1.634742	5336.682617
10435.465368	0.090601	1.634742	5431.722656
10435.466295	0.090582	1.634742	5515.692383
10435.467215	0.090663	1.634742	5599.102051
10435.468082	0.090645	1.634742	5677.690918
10435.469108	0.090597	1.634742	5770.643555
10435.469987	0.090608	1.634742	5850.288086
10436.498939	1.519219	1.634642	733.782654
10436.499819	1.904355	1.634642	2409.615479
10436.500747	1.856104	1.634642	4132.079590
10436.501798	0.687323	1.634642	4854.456055
10436.502742	0.090520	1.634642	4939.906738
10436.503604	0.090612	1.634642	5018.013672
10436.504632	0.090743	1.634642	5111.297852
10436.505648	0.090630	1.634642	5203.377930
10436.506517	0.090634	1.634642	5282.138672
10436.507464	0.090663	1.634642	5367.996582
10436.508507	0.090648	1.634642	5462.542480
10436.509442	0.090667	1.634642	5547.315430
10436.510306	0.090652	1.634642	5625.638672
10436.511349	0.090685	1.634642	5720.223145
10437.549531	1.485945	1.634787	662.731384
10437.550395	1.903480	1.634787	2307.338135
10437.551483	1.849581	1.634787	4319.682617
10437.552478	0.553824	1.634787	4870.737793
10437.553353	0.090447	1.634787	4949.878906
10437.554346	0.090725	1.634787	5039.968750
10437.555403	0.090652	1.634787	5135.787598
10437.556290	0.090630	1.634787	5216.176270
10437.557173	0.090670	1.634787	5296.237793
10437.558266	0.090754	1.634787	5395.432129
10437.559224	0.090553	1.634787	5482.181641
10437.560091	0.090582	1.634787	5560.716309
10437.561116	0.090743	1.634787	5653.728516
10437.562150	0.090557	1.634787	5747.364258
10438.588890	1.492368	1.634759	677.535156
10438.589769	1.905282	1.634759	2352.278076
10438.590756	1.854968	1.634759	4183.131836
10438.591812	0.636094	1.634759	4854.846680
10438.592727	0.090487	1.634759	4937.642578
10438.593586	0.090608	1.634759	5015.474609
10438.594673	0.090751	1.634759	5114.120605
10438.595662	0.090623	1.634759	5203.746094
10438.596535	0.090582	1.634759	5282.824219
10438.597528	0.090747	1.634759	5372.936035
10438.598576	0.090688	1.634759	5467.977539
10438.599465	0.090582	1.634759	5548.505371
10438.600388	0.090615	1.634759	5632.143066
10438.601248	0.090681	1.634759	5710.128906
10439.642561	1.455644	1.633985	625.927124
10439.643425	1.904026	1.633985	2271.005371
10439.644533	1.849234	1.633985	4319.956055
10439.645536	0.535360	1.633985	4856.922363
10439.646411	0.090505	1.633985	4936.114746
10439.647398	0.090743	1.633985	5025.678711
10439.648441	0.090656	1.633985	5120.232422
10439.649339	0.090590	1.633985	5201.582031
10439.650195	0.090681	1.633985	5279.205078
10439.651261	0.090634	1.633985	5375.820312
10439.652233	0.090619	1.633985	5463.901855
10439.653117	0.090656	1.633985	5544.041504
10439.654111	0.090707	1.633985	5634.204102
10439.655177	0.090677	1.633985	5730.866211
10440.677917	1.544106	1.634666	789.038391
10440.678879	1.900433	1.634666	2617.255371
10440.679759	1.852309	1.634666	4247.287598
10440.680661	0.824553	1.634666	4991.034668
10440.681758	0.090414	1.634666	5090.218750
10440.682650	0.090564	1.634666	5171.001953
10440.683530	0.090681	1.634666	5250.801270
10440.684625	0.090718	1.634666	5350.137207
10440.685584	0.090590	1.634666	5437.012695
10440.686452	0.090590	1.634666	5515.644531
10440.687482	0.090641	1.634666	5609.004395
10440.688508	0.090590	1.634666	5701.949219
10440.689388	0.090659	1.634666	5781.729492
10440.690323	0.090681	1.634666	5866.516602
10441.735628	1.459614	1.633095	643.689880
10441.736504	1.905524	1.633095	2312.928711
10441.737464	1.857393	1.633095	4096.025391
10441.738500	0.714518	1.633095	4836.265625
10441.739390	0.090824	1.633095	4917.099121
10441.740251	0.090623	1.633095	4995.125000
10441.741318	0.090681	1.633095	5091.881836
10441.742240	0.090634	1.633095	5175.445801
10441.743111	0.090692	1.633095	5254.438477
10441.744041	0.090721	1.633095	5338.809570
10441.745112	0.090659	1.633095	5435.905762
10441.745991	0.090604	1.633095	5515.546875
10441.746860	0.090685	1.633095	5594.352051
10441.747897	0.090776	1.633095	5688.487305
10442.768862	1.481404	1.634835	668.113098
10442.769724	1.904641	1.634835	2309.913574
10442.770781	1.850947	1.634835	4266.364746
10442.771807	0.575643	1.634835	4856.974609
10442.772677	0.090546	1.634835	4935.749512
10442.773647	0.090692	1.634835	5023.720703
10442.774693	0.090597	1.634835	5118.484863
10442.775609	0.090593	1.634835	5201.468262
10442.776473	0.090656	1.634835	5279.794434
10442.777552	0.090721	1.634835	5377.682617
10442.778537	0.090612	1.634835	5466.935059
10442.779428	0.090626	1.634835	5547.683105
10442.780406	0.090674	1.634835	5636.362305
10442.781451	0.090667	1.634835	5731.108887
10443.827728	1.528015	1.632845	767.063599
10443.828668	1.901605	1.632845	2554.572266
10443.829537	1.854298	1.632845	4165.957031
10443.830592	0.643132	1.632845	4844.461426
10443.831622	0.090524	1.632845	4937.700684
10443.832508	0.090656	1.632845	5018.021484
10443.833457	0.090663	1.632845	5104.060547
10443.834512	0.090703	1.632845	5199.752441
10443.835450	0.090670	1.632845	5284.801270
10443.836310	0.090615	1.632845	5362.730469
10443.837377	0.090743	1.632845	5459.553711
10443.838378	0.090623	1.632845	5550.267090
10443.839274	0.090688	1.632845	5631.523926
10443.840237	0.090828	1.632845	5718.990723
10444.859837	1.441443	1.634900	608.288879
10444.860874	1.899690	1.634900	2578.267334
10444.861833	1.848977	1.634900	4351.436523
10444.862703	0.755984	1.634900	5009.142578
10444.863743	0.090787	1.634900	5103.561523
10444.864774	0.090656	1.634900	5197.027344
10444.865654	0.090674	1.634900	5276.820312
10444.866592	0.090725	1.634900	5361.920410
10444.867651	0.090721	1.634900	5457.994629
10444.868585	0.090663	1.634900	5542.673828
10444.869443	0.090645	1.634900	5620.446777
10444.870460	0.090714	1.634900	5712.703125
10444.871485	0.090685	1.634900	5805.655273
10444.872378	0.090637	1.634900	5886.594238
10445.919700	1.459175	1.630585	656.628662
10445.920789	1.897269	1.630585	2722.754883
10445.921750	1.843953	1.630585	4494.793457
10445.922617	0.597279	1.630585	5012.634277
10445.923645	0.090546	1.630585	5105.715332
10445.924672	0.090623	1.630585	5198.784668
10445.925546	0.090575	1.630585	5277.947266
10445.926473	0.090623	1.630585	5361.954590
10445.927545	0.090667	1.630585	5459.148926
10445.928477	0.090579	1.630585	5543.568359
10445.929342	0.090597	1.630585	5621.934570
10445.930361	0.090729	1.630585	5714.387207
10445.931386	0.090637	1.630585	5807.290527
10445.932273	0.090535	1.630585	5887.594727
10446.950979	1.577249	1.634710	872.218445
10446.951904	1.900214	1.634710	2629.916016
10446.952784	1.852160	1.634710	4259.816406
10446.953775	0.699426	1.634710	4952.947754
10446.954782	0.090461	1.634710	5044.042480
10446.955675	0.090527	1.634710	5124.883301
10446.956533	0.090645	1.634710	5202.656250
10446.957605	0.090582	1.634710	5299.760254
10446.958507	0.090608	1.634710	5381.488770
10446.959376	0.090553	1.634710	5460.179199
10446.960328	0.090751	1.634710	5546.573730
10446.961336	0.090612	1.634710	5637.910156
10446.962223	0.090619	1.634710	5718.289062
10446.963085	0.090656	1.634710	5796.434082
10448.011760	1.501238	1.618831	704.080505
10448.012647	1.904359	1.618831	2393.247070
10448.013615	1.854393	1.618831	4188.299805
10448.014622	0.662644	1.618831	4855.582520
10448.015500	0.090549	1.618831	4935.084961
10448.016356	0.090564	1.618831	5012.607910
10448.017424	0.090656	1.618831	5109.428223
10448.018337	0.090483	1.618831	5192.039551
10448.019209	0.090538	1.618831	5270.988770
10448.020173	0.090648	1.618831	5358.373535
10448.021197	0.090553	1.618831	5451.099609
10448.022084	0.090612	1.618831	5531.472168
10448.022950	0.090597	1.618831	5609.929199
10448.024018	0.090696	1.618831	5706.792480
10449.041851	1.439711	1.634759	603.238770
10449.042731	1.902847	1.634759	2277.743896
10449.043824	1.849149	1.634759	4298.863770
10449.044789	0.625873	1.634759	4902.831055
10449.045655	0.090601	1.634759	4981.291016
10449.046686	0.090780	1.634759	5074.885254
10449.047723	0.090677	1.634759	5168.917969
10449.048609	0.090586	1.634759	5249.177246
10449.049554	0.090725	1.634759	5334.912598
10449.050617	0.090751	1.634759	5431.380859
10449.051548	0.090612	1.634759	5515.740234
10449.052410	0.090582	1.634759	5593.822266
10449.053465	0.090663	1.634759	5689.471680
10449.054466	0.090560	1.634759	5780.122559
10450.102707	1.438385	1.633337	604.121704
10450.103762	1.899060	1.633337	2607.630127
10450.104722	1.847622	1.633337	4381.347168
10450.105605	0.694709	1.633337	4994.775391
10450.106549	0.090901	1.633337	5080.585937
10450.107588	0.090593	1.633337	5174.712402
10450.108476	0.090623	1.633337	5255.185059
10450.109414	0.090685	1.633337	5340.247559
10450.110452	0.090692	1.633337	5434.386230
10450.111383	0.090619	1.633337	5518.752441
10450.112248	0.090652	1.633337	5597.166504
10450.113290	0.090656	1.633337	5691.629395
10450.114309	0.090604	1.633337	5783.955078
10450.115185	0.090634	1.633337	5863.350098
10451.133964	1.518622	1.634686	763.866760
10451.134856	1.903374	1.634686	2461.676270
10451.135715	1.855785	1.634686	4055.795654
10451.136803	0.703550	1.634686	4821.257812
10451.137760	0.090414	1.634686	4907.783691
10451.138637	0.090564	1.634686	4987.208496
10451.139627	0.090634	1.634686	5076.935547
10451.140678	0.090663	1.634686	5172.222168
10451.141569	0.090593	1.634686	5252.940918
10451.142436	0.090685	1.634686	5331.564453
10451.143546	0.090710	1.634686	5432.252930
10451.144506	0.090531	1.634686	5519.162598
10451.145416	0.090549	1.634686	5601.562500
10451.146290	0.090608	1.634686	5680.753906
10452.193809	1.524104	1.634582	774.244812
10452.194705	1.902136	1.634582	2478.558838
10452.195626	1.853873	1.634582	4185.976074
10452.196506	0.904043	1.634582	4981.533691
10452.197536	0.090688	1.634582	5074.942871
10452.198431	0.090688	1.634582	5156.108887
10452.199307	0.090674	1.634582	5235.539062
10452.200289	0.090692	1.634582	5324.598633
10452.201234	0.090645	1.634582	5410.257812
10452.202160	0.090685	1.634582	5494.231934
10452.203023	0.090652	1.634582	5572.464355
10452.204061	0.090637	1.634582	5666.545898
10452.204947	0.090571	1.634582	5746.791992
10452.205814	0.090604	1.634582	5825.345703
10453.224892	1.445702	1.634674	610.086182
10453.225846	1.901770	1.634674	2424.375000
10453.226904	1.847347	1.634674	4378.868652
10453.227832	0.614985	1.634674	4949.575195
10453.228690	0.090626	1.634674	5027.332520
10453.229759	0.090787	1.634674	5124.384277
10453.230758	0.090685	1.634674	5214.978516
10453.231642	0.090579	1.634674	5295.049805
10453.232619	0.090732	1.634674	5383.695312
10453.233658	0.090718	1.634674	5477.951172
10453.234552	0.090648	1.634674	5558.990723
10453.235420	0.090688	1.634674	5637.708496
10453.236490	0.090685	1.634674	5734.741211
10453.237487	0.090579	1.634674	5825.047852
10454.284742	1.448628	1.634868	627.255920
10454.285695	1.901536	1.634868	2439.419189
10454.286743	1.847618	1.634868	4375.723633
10454.287689	0.595642	1.634868	4939.201172
10454.288545	0.090513	1.634868	5016.680176
10454.289604	0.090758	1.634868	5112.792969
10454.290627	0.090608	1.634868	5205.484863
10454.291497	0.090538	1.634868	5284.253418
10454.292465	0.090674	1.634868	5372.025879
10454.293521	0.090623	1.634868	5467.723145
10454.294437	0.090590	1.634868	5550.703125
10454.295303	0.090619	1.634868	5629.179199
10454.296387	0.090729	1.634868	5727.529297
10454.297373	0.090509	1.634868	5816.770996
10455.316012	1.560982	1.634614	832.003174
10455.317046	1.896379	1.634614	2792.859375
10455.317937	1.845886	1.634614	4437.543945
10455.318881	0.627583	1.634614	5029.982422
10455.319965	0.090553	1.634614	5128.142090
10455.320900	0.090575	1.634614	5212.829590
10455.321762	0.090623	1.634614	5290.946289
10455.322817	0.090681	1.634614	5386.614746
10455.323817	0.090630	1.634614	5477.244629
10455.324705	0.090575	1.634614	5557.675293
10455.325666	0.090699	1.634614	5644.837402
10455.326718	0.090659	1.634614	5740.210937
10455.327640	0.090579	1.634614	5823.724609
10455.328497	0.090586	1.634614	5901.356934
10456.376864	1.540529	1.633800	788.750610
10456.377746	1.903385	1.633800	2467.536133
10456.378628	1.854327	1.633800	4103.052734
10456.379715	0.683676	1.633800	4846.208008
10456.380670	0.090483	1.633800	4932.619629
10456.381535	0.090564	1.633800	5010.957520
10456.382572	0.090721	1.633800	5105.035645
10456.383593	0.090670	1.633800	5197.609863
10456.384470	0.090619	1.633800	5277.082520
10456.385380	0.090718	1.633800	5359.635742
10456.386447	0.090699	1.633800	5456.412109
10456.387387	0.090601	1.633800	5541.576660
10456.388258	0.090604	1.633800	5620.493164
10456.389284	0.090743	1.633800	5713.595703
10457.406952	1.503944	1.634618	700.837952
10457.407828	1.904744	1.634618	2369.393311
10457.408789	1.855236	1.634618	4152.274414
10457.409856	0.639408	1.634618	4834.522461
10457.410779	0.090476	1.634618	4918.031738
10457.411641	0.090729	1.634618	4996.239746
10457.412737	0.090776	1.634618	5095.730469
10457.413728	0.090571	1.634618	5185.486816
10457.414613	0.090630	1.634618	5265.694336
10457.415590	0.090732	1.634618	5354.339844
10457.416626	0.090623	1.634618	5448.224609
10457.417526	0.090601	1.634618	5529.765137
10457.418387	0.090659	1.634618	5607.822754
10457.419460	0.090681	1.634618	5705.123535
10458.467768	1.439714	1.634219	604.679993
10458.468713	1.901902	1.634219	2401.977295
10458.469778	1.847889	1.634219	4369.979492
10458.470704	0.616362	1.634219	4940.730957
10458.471569	0.090663	1.634219	5019.154297
10458.472647	0.090685	1.634219	5116.912598
10458.473621	0.090608	1.634219	5205.164551
10458.474505	0.090593	1.634219	5285.249023
10458.475488	0.090681	1.634219	5374.388672
10458.476541	0.090659	1.634219	5469.853027
10458.477440	0.090659	1.634219	5551.355469
10458.478298	0.090601	1.634219	5629.090820
10458.479385	0.090729	1.634219	5727.712891
10458.480376	0.090604	1.634219	5817.501465
10459.499051	1.536460	1.634859	802.032104
10459.500085	1.896339	1.634859	2762.846680
10459.500965	1.846025	1.634859	4387.349121
10459.501887	0.609822	1.634859	4949.604980
10459.502760	0.090454	1.634859	5028.571289
10459.503734	0.090604	1.634859	5116.819824
10459.504654	0.090630	1.634859	5200.199219
10459.505525	0.090652	1.634859	5279.157227
10459.506552	0.090718	1.634859	5372.324219
10459.507446	0.090641	1.634859	5453.356934
10459.508317	0.090645	1.634859	5532.308105
10459.509205	0.090630	1.634859	5612.787598
10459.510245	0.090516	1.634859	5706.924805
10459.511124	0.090601	1.634859	5786.562500
10460.558773	1.438612	1.634690	602.778442
10460.559813	1.900360	1.634690	2579.152832
10460.560721	1.851709	1.634690	4260.504395
10460.561602	0.835961	1.634690	4996.985840
10460.562522	0.091567	1.634690	5081.228027
10460.563518	0.090612	1.634690	5171.477051
10460.564438	0.090568	1.634690	5254.799316
10460.565323	0.090601	1.634690	5334.980957
10460.566318	0.090641	1.634690	5425.168457
10460.567221	0.090560	1.634690	5506.944336
10460.568095	0.090593	1.634690	5586.123047
10460.569095	0.090699	1.634690	5676.822266
10460.570098	0.090546	1.634690	5767.639648
10460.570974	0.090560	1.634690	5846.970703
10461.590968	1.440531	1.634658	609.344604
10461.592013	1.898881	1.634658	2593.674805
10461.593064	1.843019	1.634658	4530.687500
10461.593957	0.517050	1.634658	4992.412598
10461.594860	0.090487	1.634658	5074.122559
10461.595934	0.090677	1.634658	5171.510254
10461.596876	0.090586	1.634658	5256.842285
10461.597732	0.090612	1.634658	5334.405762
10461.598759	0.090630	1.634658	5427.482422
10461.599807	0.090685	1.634658	5522.520020
10461.600678	0.090579	1.634658	5601.414062
10461.601617	0.090652	1.634658	5686.536133
10461.602668	0.090685	1.634658	5781.845703
10461.603589	0.090593	1.634658	5865.282227
10462.648859	1.532285	1.634650	779.933105
10462.649871	1.897939	1.634650	2700.647705
10462.650760	1.848728	1.634650	4344.166992
10462.651631	0.751630	1.634650	4998.836426
10462.652620	0.091044	1.634650	5088.878418
10462.653556	0.090637	1.634650	5173.714844
10462.654466	0.090590	1.634650	5256.151367
10462.655338	0.090571	1.634650	5335.129395
10462.656369	0.090604	1.634650	5428.542480
10462.657266	0.090524	1.634650	5509.742187
10462.658140	0.090601	1.634650	5588.927246
10462.659091	0.090703	1.634650	5675.186035
10462.660076	0.090546	1.634650	5764.373535
10462.660994	0.090571	1.634650	5847.518066
10463.683066	1.538785	1.634815	749.388489
10463.683958	1.903847	1.634815	2447.619629
10463.684944	1.852108	1.634815	4273.798340
10463.685978	0.596818	1.634815	4890.907715
10463.686879	0.090443	1.634815	4972.396973
10463.687736	0.090670	1.634815	5050.101074
10463.688819	0.090696	1.634815	5148.324707
10463.689807	0.090575	1.634815	5237.812988
10463.690685	0.090667	1.634815	5317.417969
10463.691663	0.090747	1.634815	5406.168457
10463.692709	0.090626	1.634815	5500.963379
10463.693590	0.090564	1.634815	5580.750000
10463.694457	0.090641	1.634815	5659.335449
10463.695547	0.090729	1.634815	5758.229980
10464.740800	1.454791	1.634674	622.650696
10464.741840	1.899485	1.634674	2598.114990
10464.742865	1.843967	1.634674	4488.181641
10464.743750	0.578749	1.634674	5000.374512
10464.744715	0.090659	1.634674	5087.860840
10464.745753	0.090623	1.634674	5181.927246
10464.746677	0.090626	1.634674	5265.666016
10464.747533	0.090656	1.634674	5343.267090
10464.748571	0.090688	1.634674	5437.401855
10464.749592	0.090615	1.634674	5529.919922
10464.750482	0.090575	1.634674	5610.531738
10464.751353	0.090582	1.634674	5689.428711
10464.752320	0.090699	1.634674	5777.135254
10464.753266	0.090579	1.634674	5862.822754
10465.775126	1.528689	1.634735	771.987976
10465.776138	1.897815	1.634735	2692.576660
10465.777031	1.848534	1.634735	4343.317383
10465.777998	0.653785	1.634735	4975.527832
10465.779052	0.090542	1.634735	5070.958984
10465.779975	0.090586	1.634735	5154.569824
10465.780838	0.090575	1.634735	5232.735840
10465.781909	0.090743	1.634735	5329.921875
10465.782894	0.090656	1.634735	5419.217773
10465.783779	0.090630	1.634735	5499.425293
10465.784771	0.090692	1.634735	5589.392090
10465.785810	0.090667	1.634735	5683.594727
10465.786706	0.090623	1.634735	5764.792480
10465.787562	0.090612	1.634735	5842.355957
10466.830779	1.453960	1.634598	616.479004
10466.831863	1.897815	1.634598	2673.710205
10466.832861	1.842561	1.634598	4512.585937
10466.833753	0.534020	1.634598	4988.931641
10466.834753	0.090667	1.634598	5079.598145
10466.835799	0.090710	1.634598	5174.481445
10466.836674	0.090696	1.634598	5253.840332
10466.837533	0.090721	1.634598	5331.770020
10466.838641	0.090721	1.634598	5432.289551
10466.839603	0.090648	1.634598	5519.493164
10466.840463	0.090626	1.634598	5597.431641
10466.841529	0.090710	1.634598	5694.128906
10466.842555	0.090652	1.634598	5787.137695
10466.843423	0.090652	1.634598	5865.823730
10467.869183	1.531893	1.634698	736.840698
10467.870066	1.904040	1.634698	2418.108398
10467.871022	1.853642	1.634698	4190.190430
10467.872079	0.623236	1.634698	4848.951172
10467.873005	0.090524	1.634698	4932.775879
10467.873874	0.090652	1.634698	5011.552246
10467.874927	0.090637	1.634698	5106.993164
10467.875945	0.090648	1.634698	5199.272949
10467.876835	0.090645	1.634698	5279.946777
10467.877804	0.090670	1.634698	5367.806152
10467.878850	0.090710	1.634698	5462.689453
10467.879768	0.090608	1.634698	5545.867676
10467.880626	0.090637	1.634698	5623.634277
10467.881706	0.090685	1.634698	5721.573730
10468.920759	1.439579	1.634859	604.623108
10468.921783	1.899891	1.634859	2550.111816
10468.922752	1.849014	1.634859	4341.806152
10468.923630	0.745811	1.634859	4996.627930
10468.924661	0.090674	1.634859	5090.112793
10468.925692	0.090582	1.634859	5183.502930
10468.926590	0.090542	1.634859	5264.809570
10468.927517	0.090586	1.634859	5348.782715
10468.928573	0.090652	1.634859	5444.511230
10468.929503	0.090626	1.634859	5528.793457
10468.930365	0.090557	1.634859	5606.853516
10468.931419	0.090743	1.634859	5702.497070
10468.932436	0.090586	1.634859	5794.623047
10468.933319	0.090612	1.634859	5874.633301
10469.960140	1.459519	1.634718	636.350281
10469.961011	1.905180	1.634718	2295.761719
10469.961894	1.859733	1.634718	3937.905762
10469.962867	0.975652	1.634718	4887.214844
10469.963790	0.091857	1.634718	4971.998535
10469.964667	0.090575	1.634718	5051.432617
10469.965708	0.090575	1.634718	5145.721191
10469.966598	0.090516	1.634718	5226.280762
10469.967473	0.090568	1.634718	5305.527344
10469.968430	0.090641	1.634718	5392.270508
10469.969392	0.090586	1.634718	5479.414062
10469.970309	0.090571	1.634718	5562.467773
10469.971173	0.090626	1.634718	5640.769043
10469.972206	0.090586	1.634718	5734.344238
10471.011844	1.510712	1.634815	747.802246
10471.012753	1.902869	1.634815	2477.509766
10471.013618	1.855800	1.634815	4082.776367
10471.014694	0.687495	1.634815	4822.520996
10471.015687	0.090450	1.634815	4912.338379
10471.016574	0.090630	1.634815	4992.727051
10471.017541	0.090714	1.634815	5080.447754
10471.018591	0.090648	1.634815	5175.628418
10471.019495	0.090601	1.634815	5257.531250
10471.020356	0.090659	1.634815	5335.588867
10471.021450	0.090769	1.634815	5434.890137
10471.022438	0.090597	1.634815	5524.399902
10471.023331	0.090659	1.634815	5605.358398
10471.024326	0.090718	1.634815	5695.622559
10472.053184	1.446313	1.634739	614.683167
10472.054201	1.899269	1.634739	2546.239502
10472.055247	1.844898	1.634739	4476.002441
10472.056147	0.553590	1.634739	4974.233398
10472.057017	0.090601	1.634739	5053.055664
10472.058112	0.090721	1.634739	5152.395508
10472.059068	0.090582	1.634739	5238.992187
10472.059928	0.090637	1.634739	5316.940430
10472.060961	0.090754	1.634739	5410.689941
10472.061987	0.090696	1.634739	5503.743652
10472.062869	0.090641	1.634739	5583.688965
10472.063767	0.090677	1.634739	5665.117187
10472.064843	0.090776	1.634739	5762.792480
10472.065795	0.090619	1.634739	5849.061523
10473.101859	1.540404	1.634646	813.333313
10473.102743	1.902770	1.634646	2495.381836
10473.103635	1.852731	1.634646	4148.017578
10473.104752	0.578082	1.634646	4793.735352
10473.105689	0.090421	1.634646	4878.459961
10473.106555	0.090641	1.634646	4956.955078
10473.107575	0.090670	1.634646	5049.438477
10473.108606	0.090630	1.634646	5142.877930
10473.109492	0.090593	1.634646	5223.143555
10473.110418	0.090692	1.634646	5307.124512
10473.111469	0.090707	1.634646	5402.457520
10473.112409	0.090557	1.634646	5487.580566
10473.113281	0.090542	1.634646	5566.533203
10473.114329	0.090787	1.634646	5661.678223
10474.145269	1.516110	1.634714	726.216492
10474.146154	1.904030	1.634714	2411.282715
10474.147030	1.859040	1.634714	4039.802246
10474.147992	0.935475	1.634714	4939.729004
10474.148961	0.091110	1.634714	5028.014160
10474.149883	0.090593	1.634714	5111.541016
10474.150749	0.090586	1.634714	5189.988281
10474.151775	0.090681	1.634714	5283.027344
10474.152646	0.090630	1.634714	5361.965820
10474.153519	0.090505	1.634714	5440.977051
10474.154417	0.090560	1.634714	5522.300293
10474.155445	0.090498	1.634714	5615.332520
10474.156331	0.090582	1.634714	5695.588379
10474.157191	0.090623	1.634714	5773.523926
10475.192778	1.460270	1.634791	626.455750
10475.193756	1.900247	1.634791	2484.896973
10475.194798	1.846278	1.634791	4408.718750
10475.195712	0.602805	1.634791	4959.682617
10475.196574	0.090601	1.634791	5037.780273
10475.197647	0.090798	1.634791	5135.207031
10475.198649	0.090575	1.634791	5225.963379
10475.199525	0.090615	1.634791	5305.342285
10475.200514	0.090721	1.634791	5395.065918
10475.201586	0.090623	1.634791	5492.213379
10475.202468	0.090608	1.634791	5572.129395
10475.203333	0.090703	1.634791	5650.587402
10475.204444	0.090688	1.634791	5751.342285
10475.205408	0.090590	1.634791	5838.670898
10476.237341	1.537764	1.634610	776.570618
10476.238347	1.898013	1.634610	2685.971436
10476.239239	1.848768	1.634610	4335.072754
10476.240193	0.701063	1.634610	5003.887207
10476.241237	0.090428	1.634610	5098.294434
10476.242167	0.090509	1.634610	5182.467773
10476.243033	0.090564	1.634610	5260.895996
10476.244099	0.090685	1.634610	5357.565918
10476.245104	0.090612	1.634610	5448.630371
10476.245997	0.090597	1.634610	5529.533203
10476.246952	0.090677	1.634610	5616.130371
10476.248004	0.090637	1.634610	5711.480469
10476.248922	0.090597	1.634610	5794.648437
10476.249785	0.090623	1.634610	5872.855469
10477.283858	1.534636	1.634622	782.664490
10477.284888	1.897119	1.634622	2736.697266
10477.285781	1.847300	1.634622	4386.335937
10477.286737	0.663475	1.634622	5020.618164
10477.287793	0.090568	1.634622	5116.257812
10477.288719	0.090634	1.634622	5200.184570
10477.289579	0.090476	1.634622	5277.994141
10477.290630	0.090656	1.634622	5373.272949
10477.291632	0.090553	1.634622	5464.006836
10477.292517	0.090575	1.634622	5544.165527
10477.293481	0.090721	1.634622	5631.621094
10477.294533	0.090681	1.634622	5727.017578
10477.295449	0.090571	1.634622	5809.980957
10477.296305	0.090612	1.634622	5887.544434
10478.328296	1.509199	1.634799	697.250061
10478.329171	1.904597	1.634799	2363.772461
10478.330160	1.853005	1.634799	4196.394531
10478.331222	0.604131	1.634799	4837.981445
10478.332121	0.090491	1.634799	4919.332520
10478.332984	0.090699	1.634799	4997.605957
10478.334061	0.090765	1.634799	5095.360352
10478.335044	0.090604	1.634799	5184.424316
10478.335931	0.090626	1.634799	5264.809570
10478.336904	0.090780	1.634799	5353.138672
10478.337953	0.090648	1.634799	5448.228516
10478.338847	0.090615	1.634799	5529.238770
10478.339711	0.090652	1.634799	5607.562012
10478.340826	0.090677	1.634799	5708.667480
10479.374813	1.492361	1.634614	682.008911
10479.375692	1.904967	1.634614	2356.475098
10479.376556	1.859762	1.634614	3963.309570
10479.377661	0.757617	1.634614	4800.476562
10479.378588	0.090626	1.634614	4884.487305
10479.379463	0.090608	1.634614	4963.769043
10479.380432	0.090747	1.634614	5051.703125
10479.381433	0.090634	1.634614	5142.427246
10479.382315	0.090677	1.634614	5222.404785
10479.383284	0.090758	1.634614	5310.349121
10479.384314	0.090619	1.634614	5403.686523
10479.385234	0.090597	1.634614	5487.035645
10479.386091	0.090667	1.634614	5564.736816
10479.387164	0.090776	1.634614	5662.139648
10480.420382	1.535160	1.634747	782.931580
10480.421371	1.898672	1.634747	2660.718262
10480.422266	1.849541	1.634747	4316.057617
10480.423252	0.656334	1.634747	4963.203125
10480.424295	0.090491	1.634747	5057.584961
10480.425198	0.090692	1.634747	5139.479980
10480.426056	0.090663	1.634747	5217.268555
10480.427136	0.090659	1.634747	5315.180664
10480.428132	0.090597	1.634747	5405.415039
10480.429008	0.090688	1.634747	5484.857910
10480.430005	0.090762	1.634747	5575.347168
10480.431039	0.090667	1.634747	5669.096191
10480.431921	0.090626	1.634747	5749.028320
10480.432789	0.090703	1.634747	5827.758789
10481.466913	1.546707	1.634622	796.553894
10481.467919	1.897782	1.634622	2705.722656
10481.468798	1.849237	1.634622	4331.202148
10481.469774	0.659542	1.634622	4974.915527
10481.470831	0.090579	1.634622	5070.657227
10481.471728	0.090634	1.634622	5151.955566
10481.472596	0.090626	1.634622	5230.619141
10481.473665	0.090758	1.634622	5327.639648
10481.474653	0.090579	1.634622	5417.131348
10481.475540	0.090637	1.634622	5497.526367
10481.476508	0.090740	1.634622	5585.362305
10481.477560	0.090765	1.634622	5680.847656
10481.478466	0.090634	1.634622	5762.961426
10481.479324	0.090710	1.634622	5840.791016
10482.511301	1.468634	1.634626	634.449890
10482.512182	1.905201	1.634626	2312.932129
10482.513045	1.860311	1.634626	3918.380859
10482.514149	0.801057	1.634626	4802.748047
10482.515039	0.090824	1.634626	4883.581543
10482.515912	0.090593	1.634626	4962.669434
10482.516920	0.090773	1.634626	5054.168457
10482.517910	0.090674	1.634626	5143.935547
10482.518781	0.090626	1.634626	5222.871094
10482.519645	0.090685	1.634626	5301.222656
10482.520719	0.090696	1.634626	5398.629883
10482.521631	0.090615	1.634626	5481.270996
10482.522506	0.090641	1.634626	5560.581543
10482.523474	0.090740	1.634626	5648.417480
10483.557858	1.496572	1.634674	673.457520
10483.558743	1.904487	1.634674	2358.928711
10483.559613	1.860604	1.634674	3977.654297
10483.560634	0.883784	1.634674	4879.998047
10483.561538	0.091146	1.634674	4962.394043
10483.562451	0.090634	1.634674	5045.142578
10483.563326	0.090608	1.634674	5124.424316
10483.564361	0.090637	1.634674	5218.233887
10483.565252	0.090597	1.634674	5298.955566
10483.566128	0.090597	1.634674	5378.318359
10483.567085	0.090721	1.634674	5465.138672
10483.568047	0.090557	1.634674	5552.254395
10483.568925	0.090604	1.634674	5631.804687
10483.569867	0.090743	1.634674	5717.285156
10484.602296	1.447430	1.634767	609.368164
10484.603373	1.898097	1.634767	2653.618652
10484.604368	1.842682	1.634767	4487.086914
10484.605270	0.539528	1.634767	4973.740723
10484.606255	0.090692	1.634767	5063.072266
10484.607306	0.090652	1.634767	5158.347168
10484.608200	0.090630	1.634767	5239.370117
10484.609061	0.090630	1.634767	5317.402344
10484.610164	0.090747	1.634767	5417.496582
10484.611135	0.090612	1.634767	5505.480469
10484.612000	0.090637	1.634767	5583.881836
10484.613061	0.090692	1.634767	5680.105957
10484.614082	0.090667	1.634767	5772.676270
10484.614957	0.090663	1.634767	5852.006348
10485.649957	1.542327	1.633554	794.298218
10485.650942	1.898441	1.633554	2664.262695
10485.651835	1.849622	1.633554	4315.974609
10485.652845	0.615615	1.633554	4937.746094
10485.653884	0.090549	1.633554	5031.826660
10485.654771	0.090604	1.633554	5112.192383
10485.655630	0.090718	1.633554	5190.119141
10485.656724	0.090648	1.633554	5289.288086
10485.657683	0.090502	1.633554	5376.079102
10485.658539	0.090604	1.633554	5453.636230
10485.659637	0.090710	1.633554	5553.236328
10485.660668	0.090659	1.633554	5646.706055
10485.661532	0.090670	1.633554	5725.044922
10485.662417	0.090688	1.633554	5805.304199
10486.694352	1.466960	1.634698	638.127808
10486.695230	1.904890	1.634698	2310.621338
10486.696167	1.857576	1.634698	4051.169922
10486.697231	0.716459	1.634698	4813.481934
10486.698125	0.090535	1.634698	4894.419922
10486.698989	0.090656	1.634698	4972.746094
10486.700030	0.090677	1.634698	5067.141602
10486.701001	0.090524	1.634698	5155.040039
10486.701873	0.090557	1.634698	5234.005371
10486.702748	0.090623	1.634698	5313.300293
10486.703838	0.090597	1.634698	5412.050781
10486.704718	0.090575	1.634698	5491.756836
10486.705603	0.090630	1.634698	5571.964355
10486.706678	0.090696	1.634698	5669.462402
10487.740874	1.456978	1.634674	633.785278
10487.741744	1.905088	1.634674	2291.211670
10487.742785	1.852361	1.634674	4219.519531
10487.743814	0.611576	1.634674	4848.831055
10487.744709	0.090509	1.634674	4929.836426
10487.745635	0.090630	1.634674	5013.759766
10487.746698	0.090652	1.634674	5110.122559
10487.747628	0.090553	1.634674	5194.336914
10487.748489	0.090604	1.634674	5272.347168
10487.749535	0.090681	1.634674	5367.199707
10487.750555	0.090634	1.634674	5459.645996
10487.751427	0.090568	1.634674	5538.621094
10487.752360	0.090659	1.634674	5623.206055
10487.753448	0.090667	1.634674	5721.851074
10488.785335	1.454553	1.634739	612.366882
10488.786433	1.897354	1.634739	2695.661133
10488.787403	1.844257	1.634739	4484.589844
10488.788273	0.619438	1.634739	5023.501465
10488.789323	0.090648	1.634739	5118.682129
10488.790355	0.090615	1.634739	5212.197266
10488.791226	0.090656	1.634739	5291.158203
10488.792135	0.090674	1.634739	5373.580566
10488.793217	0.090696	1.634739	5471.713379
10488.794157	0.090568	1.634739	5556.847168
10488.795026	0.090685	1.634739	5635.652344
10488.796052	0.090714	1.634739	5728.725098
10488.797078	0.090637	1.634739	5821.718750
10488.797968	0.090623	1.634739	5902.373047
10489.831860	1.453279	1.634565	610.377075
10489.832963	1.896771	1.634565	2702.515625
10489.833946	1.842931	1.634565	4514.116699
10489.834819	0.572362	1.634565	5013.788574
10489.835863	0.090656	1.634565	5108.433105
10489.836909	0.090648	1.634565	5203.250977
10489.837796	0.090612	1.634565	5283.623535
10489.838724	0.090648	1.634565	5367.745117
10489.839798	0.090677	1.634565	5465.132812
10489.840735	0.090637	1.634565	5550.060059
10489.841601	0.090582	1.634565	5628.504395
10489.842651	0.090754	1.634565	5723.796387
10489.843672	0.090623	1.634565	5816.322266
10489.844557	0.090608	1.634565	5896.510254
10490.876454	1.547201	1.634634	793.714050
10490.877379	1.901298	1.634634	2552.414307
10490.878246	1.853445	1.634634	4159.351074
10490.879332	0.603168	1.634634	4814.391113
10490.880332	0.090410	1.634634	4904.801270
10490.881213	0.090601	1.634634	4984.620605
10490.882190	0.090641	1.634634	5073.176758
10490.883226	0.090619	1.634634	5167.058105
10490.884129	0.090579	1.634634	5248.850586
10490.884983	0.090623	1.634634	5326.242187
10490.886022	0.090674	1.634634	5420.452148
10490.887020	0.090549	1.634634	5510.820312
10490.887907	0.090549	1.634634	5591.137695
10490.888893	0.090648	1.634634	5680.516602
10491.924918	1.445065	1.632040	606.927185
10491.925996	1.898024	1.632040	2652.996582
10491.927000	1.843044	1.632040	4503.413086
10491.927883	0.565063	1.632040	5002.364258
10491.928864	0.090692	1.632040	5091.333008
10491.929928	0.090630	1.632040	5187.763184
10491.930803	0.090590	1.632040	5267.029297
10491.931670	0.090696	1.632040	5345.662598
10491.932766	0.090729	1.632040	5445.101562
10491.933729	0.090586	1.632040	5532.335937
10491.934591	0.090608	1.632040	5610.439941
10491.935644	0.090743	1.632040	5705.992676
10491.936688	0.090579	1.632040	5800.556641
10491.937574	0.090688	1.632040	5880.906738
10492.968455	1.472131	1.634678	736.065674
10492.969515	1.895859	1.634678	2745.676758
10492.970465	1.842400	1.634678	4495.956543
10492.971336	0.563093	1.634678	4986.410645
10492.972401	0.090608	1.634678	5082.908203
10492.973408	0.090674	1.634678	5174.216797
10492.974298	0.090659	1.634678	5254.903320
10492.975244	0.090714	1.634678	5340.718750
10492.976272	0.090670	1.634678	5433.927734
10492.977202	0.090597	1.634678	5518.183105
10492.978067	0.090685	1.634678	5596.625488
10492.979118	0.090769	1.634678	5692.023926
10492.980120	0.090608	1.634678	5782.812988
10492.980992	0.090601	1.634678	5861.816895
10494.016022	1.529033	1.634739	764.516602
10494.016976	1.900814	1.634739	2577.893311
10494.017851	1.853423	1.634739	4199.638184
10494.018795	0.842303	1.634739	4994.772461
10494.019841	0.090516	1.634739	5089.452637
10494.020720	0.090648	1.634739	5169.132324
10494.021578	0.090699	1.634739	5246.952637
10494.022604	0.090674	1.634739	5339.983887
10494.023561	0.090630	1.634739	5426.716797
10494.024429	0.090692	1.634739	5505.437500
10494.025455	0.090806	1.634739	5598.604004
10494.026487	0.090692	1.634739	5692.198242
10494.027379	0.090681	1.634739	5773.085937
10494.028292	0.090754	1.634739	5855.944824
10495.059471	1.516575	1.634670	764.353699
10495.060374	1.902499	1.634670	2482.310059
10495.061241	1.854730	1.634670	4090.361328
10495.062328	0.656290	1.634670	4803.749023
10495.063317	0.090443	1.634670	4893.197266
10495.064205	0.090608	1.634670	4973.657227
10495.065185	0.090758	1.634670	5062.600098
10495.066232	0.090623	1.634670	5157.481934
10495.067133	0.090688	1.634670	5239.192383
10495.067994	0.090696	1.634670	5317.281250
10495.069084	0.090696	1.634670	5416.139648
10495.070055	0.090626	1.634670	5504.137695
10495.070924	0.090648	1.634670	5582.911133
10495.072025	0.090747	1.634670	5682.823730
10496.106946	1.454766	1.634706	625.549194
10496.107813	1.903520	1.634706	2275.901367
10496.108911	1.849383	1.634706	4306.524414
10496.109903	0.553074	1.634706	4855.173340
10496.110800	0.090542	1.634706	4936.389648
10496.111795	0.090762	1.634706	5026.697754
10496.112836	0.090593	1.634706	5121.005371
10496.113724	0.090656	1.634706	5201.507324
10496.114580	0.090696	1.634706	5279.143066
10496.115666	0.090769	1.634706	5377.718262
10496.116633	0.090593	1.634706	5465.321777
10496.117490	0.090626	1.634706	5542.988281
10496.118589	0.090692	1.634706	5642.659180
10496.119609	0.090692	1.634706	5735.165039
10497.151530	1.513916	1.634686	814.486816
10497.152597	1.894435	1.634686	2835.848633
10497.153505	1.842279	1.634686	4508.637695
10497.154372	0.566320	1.634686	4999.636719
10497.155466	0.090608	1.634686	5098.761719
10497.156454	0.090590	1.634686	5188.264160
10497.157326	0.090634	1.634686	5267.296387
10497.158300	0.090725	1.634686	5355.662598
10497.159372	0.090652	1.634686	5452.841309
10497.160254	0.090685	1.634686	5532.825195
10497.161117	0.090754	1.634686	5611.145996
10497.162205	0.090908	1.634686	5710.054199
10497.163165	0.090663	1.634686	5797.090332
10497.164047	0.090652	1.634686	5877.045410
10498.197947	1.451470	1.634731	616.874634
10498.198993	1.898646	1.634731	2602.858398
10498.199934	1.848505	1.634731	4342.301270
10498.200818	0.738669	1.634731	4995.285156
10498.201767	0.091018	1.634731	5081.661133
10498.202796	0.090604	1.634731	5174.893066
10498.203687	0.090604	1.634731	5255.621582
10498.204548	0.090623	1.634731	5333.647461
10498.205601	0.090688	1.634731	5429.142578
10498.206543	0.090634	1.634731	5514.519531
10498.207405	0.090615	1.634731	5592.629883
10498.208456	0.090674	1.634731	5687.928223
10498.209475	0.090652	1.634731	5780.302246
10498.210356	0.090634	1.634731	5860.150391
10499.242525	1.535914	1.634839	783.316284
10499.243415	1.902598	1.634839	2476.627930
10499.244278	1.854034	1.634839	4076.659668
10499.245396	0.630249	1.634839	4781.278320
10499.246351	0.090432	1.634839	4867.641113
10499.247213	0.090619	1.634839	4945.754395
10499.248257	0.090831	1.634839	5040.582031
10499.249285	0.090608	1.634839	5133.727051
10499.250163	0.090612	1.634839	5213.284180
10499.251069	0.090740	1.634839	5295.494629
10499.252153	0.090776	1.634839	5393.895996
10499.253087	0.090601	1.634839	5478.517090
10499.253993	0.090721	1.634839	5560.710937
10499.254872	0.090615	1.634839	5640.361816
10500.289053	1.533801	1.634698	780.704834
10500.289949	1.902601	1.634698	2485.435547
10500.290810	1.854269	1.634698	4081.960937
10500.291929	0.639141	1.634698	4797.159180
10500.292900	0.090498	1.634698	4885.032715
10500.293757	0.090641	1.634698	4962.711914
10500.294833	0.090721	1.634698	5060.328125
10500.295875	0.090703	1.634698	5154.840820
10500.296758	0.090663	1.634698	5234.895996
10500.297683	0.090656	1.634698	5318.752441
10500.298757	0.090718	1.634698	5416.183105
10500.299699	0.090641	1.634698	5501.566895
10500.300569	0.090597	1.634698	5580.386230
10500.301611	0.090754	1.634698	5674.952148
10501.334458	1.444285	1.634694	608.043823
10501.335441	1.900433	1.634694	2476.169922
10501.336382	1.852313	1.634694	4219.196777
10501.337267	0.869202	1.634694	4988.440430
10501.338241	0.091879	1.634694	5077.930176
10501.339245	0.090677	1.634694	5168.970215
10501.340124	0.090608	1.634694	5248.614746
10501.340983	0.090667	1.634694	5326.497070
10501.342046	0.090634	1.634694	5422.840332
10501.342975	0.090692	1.634694	5507.093262
10501.343843	0.090637	1.634694	5585.766602
10501.344789	0.090707	1.634694	5671.575195
10501.345823	0.090593	1.634694	5765.248535
10501.346719	0.090597	1.634694	5846.423340
10502.380989	1.443127	1.634783	610.442871
10502.382001	1.899584	1.634783	2532.821777
10502.382928	1.851284	1.634783	4248.961914
10502.383859	0.765612	1.634783	4961.746094
10502.384717	0.091011	1.634783	5039.833496
10502.385737	0.090667	1.634783	5132.313477
10502.386639	0.090582	1.634783	5214.018555
10502.387513	0.090564	1.634783	5293.171387
10502.388454	0.090667	1.634783	5378.488770
10502.389415	0.090586	1.634783	5465.541992
10502.390332	0.090568	1.634783	5548.592285
10502.391199	0.090652	1.634783	5627.187500
10502.392297	0.090659	1.634783	5726.731445
10502.393202	0.090648	1.634783	5808.768066
10503.425542	1.525646	1.634710	750.617676
10503.426425	1.903455	1.634710	2431.368164
10503.427342	1.854342	1.634710	4131.799805
10503.428432	0.618567	1.634710	4806.037598
10503.429381	0.090472	1.634710	4891.895996
10503.430245	0.090608	1.634710	4970.181152
10503.431300	0.090762	1.634710	5065.934570
10503.432318	0.090593	1.634710	5158.158691
10503.433211	0.090579	1.634710	5239.045410
10503.434164	0.090714	1.634710	5325.496094
10503.435188	0.090681	1.634710	5418.353516
10503.436109	0.090667	1.634710	5501.857422
10503.436970	0.090743	1.634710	5579.987305
10503.438036	0.090729	1.634710	5676.704102
10504.473032	1.458552	1.634892	630.094543
10504.473972	1.901173	1.634892	2417.197266
10504.475031	1.847190	1.634892	4373.371582
10504.475967	0.624767	1.634892	4958.153320
10504.476828	0.090656	1.634892	5036.207520
10504.477880	0.090732	1.634892	5131.658203
10504.478879	0.090608	1.634892	5222.175293
10504.479761	0.090699	1.634892	5302.172363
10504.480722	0.090699	1.634892	5389.334473
10504.481757	0.090696	1.634892	5483.204590
10504.482683	0.090663	1.634892	5567.158203
10504.483539	0.090670	1.634892	5644.771973
10504.484570	0.090688	1.634892	5738.271973
10504.485591	0.090608	1.634892	5830.782715
10505.516477	1.444475	1.634884	609.568481
10505.517475	1.899847	1.634884	2505.616211
10505.518536	1.844971	1.634884	4463.129883
10505.519426	0.581272	1.634884	4980.461914
10505.520293	0.090520	1.634884	5058.942871
10505.521372	0.090659	1.634884	5156.764160
10505.522359	0.090546	1.634884	5246.132812
10505.523221	0.090549	1.634884	5324.186523
10505.524283	0.090732	1.634884	5420.544434
10505.525323	0.090524	1.634884	5514.688965
10505.526211	0.090579	1.634884	5595.122559
10505.527123	0.090615	1.634884	5677.763672
10505.528201	0.090656	1.634884	5775.490234
10505.529151	0.090608	1.634884	5861.567871
10506.565132	1.519076	1.634714	762.576172
10506.566017	1.903118	1.634714	2446.835205
10506.566882	1.854727	1.634714	4051.173828
10506.568004	0.632681	1.634714	4761.041504
10506.568960	0.090421	1.634714	4847.483887
10506.569824	0.090579	1.634714	4925.743652
10506.570858	0.090773	1.634714	5019.602539
10506.571896	0.090652	1.634714	5113.699219
10506.572789	0.090652	1.634714	5194.651367
10506.573705	0.090740	1.634714	5277.769043
10506.574760	0.090707	1.634714	5373.464844
10506.575704	0.090623	1.634714	5459.012695
10506.576567	0.090634	1.634714	5537.229492
10506.577613	0.090743	1.634714	5632.146973
