time (s)	coil I (A)	last det (V)	int current (uC)
5482.209239	1.474109	0.792413	635.340942
5482.210334	1.873982	0.792413	2687.351074
5482.211330	1.817527	0.792413	4497.607910
5482.212207	1.761456	0.792413	6042.405273
5482.213204	1.702427	0.792413	7739.724609
5482.214260	1.642797	0.792413	9474.517578
5482.215159	1.593318	0.792413	10906.910156
5482.216027	1.545798	0.792413	12248.663086
5482.217127	1.491390	0.792413	13889.192383
5482.218100	1.444332	0.792413	15294.527344
5482.219013	1.401075	0.792413	16573.708984
5482.219899	1.361195	0.792413	17779.728516
5482.220969	1.316356	0.792413	19188.230469
5482.221868	1.278153	0.792413	20337.289062
5482.222746	0.963076	0.792413	21182.869141
5482.223634	0.102195	0.792413	21273.617187
5482.224674	0.090472	0.792413	21367.708984
5482.225552	0.090439	0.792413	21447.115234
5482.226413	0.090443	0.792413	21524.986328
5482.227419	0.090542	0.792413	21616.072266
5482.228323	0.090472	0.792413	21697.859375
5482.229245	0.090465	0.792413	21781.267578
5482.230121	0.090520	0.792413	21860.562500
5482.231165	0.090527	0.792413	21955.072266
5482.232055	0.090450	0.792413	22035.572266
5483.265974	1.427593	0.805590	602.444153
5483.267005	1.873469	0.805590	2533.990723
5483.267984	1.822493	0.805590	4318.210937
5483.268863	1.767169	0.805590	5871.552734
5483.269740	1.712135	0.805590	7373.095215
5483.270867	1.651315	0.805590	9234.126953
5483.271767	1.601550	0.805590	10675.522461
5483.272643	1.553833	0.805590	12036.679687
5483.273744	1.498784	0.805590	13686.840820
5483.274704	1.451473	0.805590	15080.254883
5483.275572	1.409971	0.805590	16304.109375
5483.276589	1.364224	0.805590	17691.525391
5483.277632	1.319963	0.805590	19068.248047
5483.278514	1.283401	0.805590	20200.207031
5483.279458	0.951929	0.805590	21098.828125
5483.280532	0.095068	0.805590	21200.931641
5483.281469	0.090472	0.805590	21285.705078
5483.282325	0.090428	0.805590	21363.111328
5483.283388	0.090593	0.805590	21459.412109
5483.284397	0.090535	0.805590	21550.761719
5483.285268	0.090557	0.805590	21629.636719
5483.286220	0.090564	0.805590	21715.853516
5483.287258	0.090516	0.805590	21809.808594
5483.288192	0.090443	0.805590	21894.283203
5483.289060	0.090527	0.805590	21972.861328
5484.299844	1.551815	0.817445	836.428345
5484.300882	1.869979	0.817445	2777.466797
5484.301780	1.818285	0.817445	4410.286621
5484.302730	1.759010	0.817445	6081.346191
5484.303796	1.695718	0.817445	7888.981445
5484.304731	1.643090	0.817445	9425.270508
5484.305608	1.594893	0.817445	10823.991211
5484.306666	1.540781	0.817445	12454.137695
5484.307673	1.489124	0.817445	13953.685547
5484.308566	1.445186	0.817445	15244.236328
5484.309548	1.399124	0.817445	16618.175781
5484.310615	1.351432	0.817445	18060.154297
5484.311536	1.312090	0.817445	19268.589844
5484.312403	1.276179	0.817445	20375.037109
5484.313498	0.645494	0.817445	21081.853516
5484.314482	0.090410	0.817445	21170.816406
5484.315369	0.090494	0.817445	21251.083984
5484.316360	0.090571	0.817445	21340.839844
5484.317400	0.090494	0.817445	21434.953125
5484.318288	0.090531	0.817445	21515.343750
5484.319145	0.090520	0.817445	21592.919922
5484.320246	0.090615	0.817445	21692.687500
5484.321207	0.090406	0.817445	21779.568359
5484.322064	0.090575	0.817445	21857.191406
5484.323127	0.090623	0.817445	21953.523437
5485.358523	1.433016	0.813308	607.598938
5485.359499	1.873938	0.813308	2436.562500
5485.360562	1.818391	0.813308	4369.512207
5485.361473	1.760468	0.813308	5973.297852
5485.362344	1.706320	0.813308	7459.501953
5485.363437	1.645682	0.813308	9258.232422
5485.364405	1.593314	0.813308	10800.560547
5485.365282	1.548842	0.813308	12158.894531
5485.366303	1.497484	0.813308	13687.826172
5485.367351	1.446724	0.813308	15203.992187
5485.368239	1.403676	0.813308	16450.457031
5485.369131	1.362012	0.813308	17665.371094
5485.370212	1.316602	0.813308	19088.617187
5485.371173	1.277875	0.813308	20316.654297
5485.372036	0.970488	0.813308	21154.185547
5485.373076	0.095339	0.813308	21253.337891
5485.374117	0.090601	0.813308	21347.652344
5485.374987	0.090553	0.813308	21426.433594
5485.375926	0.090604	0.813308	21511.511719
5485.376983	0.090626	0.813308	21607.302734
5485.377919	0.090461	0.813308	21691.974609
5485.378783	0.090469	0.813308	21770.138672
5485.379814	0.090659	0.813308	21863.607422
5485.380830	0.090450	0.813308	21955.505859
5485.381730	0.090476	0.813308	22036.933594
5486.391242	1.443604	0.836619	633.741943
5486.392116	1.874612	0.836619	2272.152832
5486.392980	1.831805	0.836619	3854.832764
5486.394031	1.768206	0.836619	5713.216797
5486.394910	1.715039	0.836619	7220.736328
5486.395780	1.665044	0.836619	8669.324219
5486.396722	1.614012	0.836619	10189.723633
5486.397701	1.563468	0.836619	11720.358398
5486.398586	1.518527	0.836619	13064.254883
5486.399490	1.471813	0.836619	14394.773437
5486.400597	1.420972	0.836619	15967.789062
5486.401497	1.378055	0.836619	17208.039062
5486.402364	1.339911	0.836619	18369.742187
5486.403419	1.296647	0.836619	19737.705078
5486.404383	1.259073	0.836619	20951.451172
5486.405272	0.277910	0.836619	21198.513672
5486.406163	0.090417	0.836619	21279.076172
5486.407246	0.090601	0.836619	21377.197266
5486.408126	0.090502	0.836619	21456.837891
5486.408986	0.090586	0.836619	21534.742187
5486.410011	0.090674	0.836619	21627.683594
5486.410987	0.090502	0.836619	21716.013672
5486.411844	0.090502	0.836619	21793.574219
5486.412896	0.090721	0.836619	21889.013672
5486.413955	0.090608	0.836619	21984.966797
5487.450610	1.494668	0.848140	714.451294
5487.451488	1.873850	0.848140	2359.691895
5487.452444	1.826411	0.848140	4105.741211
5487.453502	1.760651	0.848140	5968.509766
5487.454437	1.705247	0.848140	7562.915039
5487.455303	1.654384	0.848140	8995.611328
5487.456360	1.598119	0.848140	10684.823242
5487.457381	1.545762	0.848140	12263.045898
5487.458275	1.500370	0.848140	13604.376953
5487.459255	1.452473	0.848140	15027.800781
5487.460314	1.401848	0.848140	16512.357422
5487.461230	1.360430	0.848140	17758.511719
5487.462100	1.322439	0.848140	18909.033203
5487.463182	1.280508	0.848140	20294.542969
5487.464183	0.825677	0.848140	21121.046875
5487.465061	0.093684	0.848140	21203.300781
5487.466044	0.090648	0.848140	21292.408203
5487.467094	0.090579	0.848140	21387.515625
5487.467984	0.090476	0.848140	21468.039062
5487.468842	0.090590	0.848140	21545.765625
5487.469941	0.090659	0.848140	21645.400391
5487.470901	0.090520	0.848140	21732.298828
5487.471757	0.090502	0.848140	21809.767578
5487.472828	0.090667	0.848140	21906.871094
5487.473857	0.090491	0.848140	21999.986328
5488.482844	1.520065	0.851689	769.152710
5488.483859	1.869199	0.851689	2666.390137
5488.484758	1.818787	0.851689	4301.479492
5488.485729	1.759512	0.851689	6009.965332
5488.486785	1.696816	0.851689	7801.803223
5488.487707	1.645107	0.851689	9318.591797
5488.488573	1.597646	0.851689	10702.153320
5488.489653	1.543429	0.851689	12369.056641
5488.490652	1.491874	0.851689	13859.438477
5488.491531	1.448324	0.851689	15132.515625
5488.492539	1.401592	0.851689	16545.320312
5488.493591	1.354827	0.851689	17970.597656
5488.494490	1.316521	0.851689	19154.150391
5488.495353	1.280713	0.851689	20259.406250
5488.496442	0.730565	0.851689	21054.992187
5488.497414	0.090747	0.851689	21143.199219
5488.498293	0.090560	0.851689	21222.800781
5488.499292	0.090740	0.851689	21313.449219
5488.500338	0.090593	0.851689	21408.208984
5488.501227	0.090579	0.851689	21488.732422
5488.502098	0.090597	0.851689	21567.642578
5488.503210	0.090674	0.851689	21668.472656
5488.504165	0.090542	0.851689	21754.939453
5488.505036	0.090579	0.851689	21833.833984
5488.506068	0.090608	0.851689	21927.341797
5489.542143	1.456589	0.847915	718.098572
5489.543217	1.868371	0.847915	2724.729492
5489.544152	1.814586	0.847915	4421.367676
5489.545031	1.759248	0.847915	5967.746582
5489.546090	1.696516	0.847915	7764.356934
5489.547115	1.638505	0.847915	9443.824219
5489.548012	1.590927	0.847915	10870.884766
5489.548959	1.543352	0.847915	12332.439453
5489.550011	1.490105	0.847915	13900.029297
5489.550936	1.444534	0.847915	15236.222656
5489.551803	1.402793	0.847915	16452.443359
5489.552875	1.355566	0.847915	17905.611328
5489.553869	1.313525	0.847915	19211.255859
5489.554754	1.277864	0.847915	20342.166016
5489.555758	0.749854	0.847915	21095.019531
5489.556799	0.090967	0.847915	21189.716797
5489.557700	0.090491	0.847915	21271.248047
5489.558559	0.090590	0.847915	21349.064453
5489.559638	0.090637	0.847915	21446.861328
5489.560624	0.090520	0.847915	21536.113281
5489.561499	0.090465	0.847915	21615.269531
5489.562486	0.090626	0.847915	21704.716797
5489.563547	0.090582	0.847915	21800.824219
5489.564422	0.090553	0.847915	21880.058594
5489.565291	0.090597	0.847915	21958.787109
5490.573333	1.509525	0.817537	765.329285
5490.574239	1.876062	0.817537	2465.041504
5490.575104	1.829989	0.817537	4047.981934
5490.576186	1.764778	0.817537	5957.471680
5490.577191	1.705752	0.817537	7671.752441
5490.578075	1.654581	0.817537	9134.402344
5490.578994	1.604436	0.817537	10608.878906
5490.579860	1.556883	0.817537	11957.139648
5490.580862	1.506314	0.817537	13466.465820
5490.581785	1.460467	0.817537	14814.477539
5490.582655	1.419016	0.817537	16049.021484
5490.583700	1.374459	0.817537	17485.332031
5490.584596	1.335612	0.817537	18682.039062
5490.585475	1.297082	0.817537	19822.173828
5490.586470	1.206647	0.817537	21022.787109
5490.587425	0.179923	0.817537	21194.613281
5490.588351	0.090366	0.817537	21278.292969
5490.589208	0.090458	0.817537	21355.814453
5490.590226	0.090564	0.817537	21448.007812
5490.591119	0.090403	0.817537	21528.738281
5490.591992	0.090509	0.817537	21607.751953
5490.592916	0.090549	0.817537	21691.419922
5490.593908	0.090461	0.817537	21781.158203
5490.594784	0.090487	0.817537	21860.425781
5490.595643	0.090586	0.817537	21938.238281
5491.633220	1.533175	0.804514	861.644409
5491.634129	1.875989	0.804514	2566.918213
5491.635039	1.826166	0.804514	4228.729004
5491.635920	1.768425	0.804514	5786.711914
5491.636960	1.707737	0.804514	7562.758301
5491.637858	1.656903	0.804514	9050.657227
5491.638739	1.608450	0.804514	10467.701172
5491.639718	1.557447	0.804514	11992.442383
5491.640665	1.507778	0.804514	13420.308594
5491.641589	1.461354	0.804514	14770.599609
5491.642459	1.419734	0.804514	16005.767578
5491.643500	1.374042	0.804514	17436.144531
5491.644386	1.337076	0.804514	18620.794922
5491.645251	1.299672	0.804514	19745.011719
5491.646317	1.197788	0.804514	21021.853516
5491.647260	0.173730	0.804514	21185.681641
5491.648124	0.090392	0.804514	21263.779297
5491.649047	0.090648	0.804514	21347.447266
5491.650101	0.090509	0.804514	21442.843750
5491.650985	0.090498	0.804514	21522.843750
5491.651848	0.090502	0.804514	21600.947266
5491.652845	0.090659	0.804514	21691.333984
5491.653810	0.090531	0.804514	21778.697266
5491.654687	0.090593	0.804514	21858.148437
5491.655545	0.090615	0.804514	21935.896484
5492.665269	1.423780	0.821312	597.987793
5492.666350	1.875864	0.821312	2625.796875
5492.667287	1.823727	0.821312	4334.628906
5492.668166	1.768495	0.821312	5889.135742
5492.669142	1.711769	0.821312	7559.822266
5492.670159	1.652780	0.821312	9240.699219
5492.671044	1.603107	0.821312	10659.449219
5492.671908	1.556290	0.821312	12004.083984
5492.672982	1.502490	0.821312	13617.758789
5492.673909	1.455776	0.821312	14967.263672
5492.674769	1.414420	0.821312	16183.665039
5492.675817	1.366641	0.821312	17615.904297
5492.676824	1.322454	0.821312	18947.615234
5492.677719	1.283980	0.821312	20096.777344
5492.678686	1.019506	0.821312	21082.638672
5492.679746	0.099397	0.821312	21188.000000
5492.680664	0.090432	0.821312	21271.017578
5492.681529	0.090582	0.821312	21349.371094
5492.682607	0.090590	0.821312	21447.027344
5492.683603	0.090524	0.821312	21537.189453
5492.684493	0.090652	0.821312	21617.869141
5492.685479	0.090681	0.821312	21707.281250
5492.686525	0.090645	0.821312	21802.095703
5492.687423	0.090564	0.821312	21883.421875
5492.688284	0.090582	0.821312	21961.414062
5493.725215	1.490541	0.855762	784.024414
5493.726274	1.871737	0.855762	2766.193848
5493.727204	1.818252	0.855762	4457.168457
5493.728071	1.762815	0.855762	5985.529297
5493.729139	1.701075	0.855762	7802.277832
5493.730130	1.644591	0.855762	9432.067383
5493.731024	1.595585	0.855762	10858.520508
5493.732022	1.543795	0.855762	12399.228516
5493.733078	1.489578	0.855762	13972.222656
5493.733971	1.445449	0.855762	15263.008789
5493.734832	1.403990	0.855762	16471.843750
5493.735933	1.355863	0.855762	17964.648437
5493.736910	1.312775	0.855762	19247.228516
5493.737779	1.275831	0.855762	20355.925781
5493.738799	0.743053	0.855762	21113.839844
5493.739845	0.090846	0.855762	21208.865234
5493.740717	0.090491	0.855762	21287.773437
5493.741608	0.090483	0.855762	21368.394531
5493.742696	0.090575	0.855762	21466.939453
5493.743653	0.090546	0.855762	21553.591797
5493.744517	0.090535	0.855762	21631.814453
5493.745521	0.090626	0.855762	21722.802734
5493.746567	0.090593	0.855762	21817.562500
5493.747455	0.090542	0.855762	21897.962891
5493.748376	0.090692	0.855762	21981.490234
5494.756819	1.471509	0.822802	645.992310
5494.757696	1.880830	0.822802	2295.479980
5494.758713	1.831025	0.822802	4157.632812
5494.759757	1.765151	0.822802	6000.450684
5494.760641	1.711728	0.822802	7513.618652
5494.761522	1.660935	0.822802	8976.902344
5494.762435	1.609270	0.822802	10446.166016
5494.763440	1.555745	0.822802	12009.689453
5494.764366	1.508654	0.822802	13406.703125
5494.765261	1.464481	0.822802	14717.414062
5494.766260	1.418104	0.822802	16134.100586
5494.767186	1.373855	0.822802	17406.291016
5494.768123	1.332484	0.822802	18654.828125
5494.768995	1.293896	0.822802	19783.105469
5494.770041	1.225287	0.822802	21064.755859
5494.770937	0.192550	0.822802	21237.281250
5494.771812	0.090469	0.822802	21316.441406
5494.772820	0.090487	0.822802	21407.652344
5494.773754	0.090436	0.822802	21492.119141
5494.774635	0.090564	0.822802	21571.906250
5494.775632	0.090648	0.822802	21662.283203
5494.776627	0.090520	0.822802	21752.351562
5494.777503	0.090586	0.822802	21831.705078
5494.778371	0.090546	0.822802	21910.298828
5494.779415	0.090615	0.822802	22004.900391
5495.816217	1.517402	0.801118	779.944824
5495.817109	1.879790	0.801118	2456.717529
5495.817971	1.832047	0.801118	4035.942139
5495.819087	1.763763	0.801118	6004.302246
5495.820067	1.705899	0.801118	7676.083008
5495.820938	1.655592	0.801118	9118.103516
5495.821998	1.597441	0.801118	10811.391602
5495.823035	1.543465	0.801118	12411.964844
5495.823929	1.496975	0.801118	13750.260742
5495.824860	1.451349	0.801118	15101.466797
5495.825921	1.401896	0.801118	16588.878906
5495.826869	1.359668	0.801118	17877.843750
5495.827735	1.322703	0.801118	19023.304687
5495.828792	1.276853	0.801118	20372.937500
5495.829830	0.724413	0.801118	21124.878906
5495.830713	0.091622	0.801118	21205.781250
5495.831697	0.090549	0.801118	21294.880859
5495.832748	0.090575	0.801118	21390.074219
5495.833665	0.090527	0.801118	21473.087891
5495.834523	0.090549	0.801118	21550.779297
5495.835590	0.090626	0.801118	21647.476562
5495.836577	0.090498	0.801118	21736.798828
5495.837449	0.090516	0.801118	21815.728516
5495.838424	0.090626	0.801118	21904.089844
5495.839465	0.090560	0.801118	21998.363281
5496.848462	1.566676	0.815781	896.138672
5496.849530	1.871287	0.815781	2894.672607
5496.850420	1.817787	0.815781	4512.502930
5496.851312	1.759589	0.815781	6082.055664
5496.852403	1.697263	0.815781	7933.769531
5496.853361	1.642950	0.815781	9507.715820
5496.854227	1.595039	0.815781	10889.019531
5496.855275	1.540953	0.815781	12503.938477
5496.856308	1.487878	0.815781	14040.916992
5496.857183	1.444530	0.815781	15304.880859
5496.858124	1.401196	0.815781	16623.406250
5496.859185	1.354497	0.815781	18060.527344
5496.860137	1.314250	0.815781	19311.693359
5496.861008	1.274711	0.815781	20421.966797
5496.862059	0.669932	0.815781	21126.064453
5496.863073	0.090414	0.815781	21217.744141
5496.863962	0.090524	0.815781	21298.218750
5496.864917	0.090645	0.815781	21384.785156
5496.865977	0.090590	0.815781	21480.810547
5496.866898	0.090615	0.815781	21564.267578
5496.867758	0.090645	0.815781	21642.222656
5496.868831	0.090593	0.815781	21739.429687
5496.869823	0.090480	0.815781	21829.185547
5496.870714	0.090531	0.815781	21909.849609
5496.871694	0.090674	0.815781	21998.710937
5497.908288	1.527707	0.883171	853.988464
5497.909348	1.871462	0.883171	2837.738525
5497.910242	1.818116	0.883171	4463.134766
5497.911104	1.761284	0.883171	5981.361816
5497.912209	1.699164	0.883171	7858.937988
5497.913191	1.643848	0.883171	9473.196289
5497.914051	1.596017	0.883171	10845.770508
5497.915107	1.540668	0.883171	12472.715820
5497.916145	1.487666	0.883171	14016.913086
5497.917035	1.444373	0.883171	15302.404297
5497.917974	1.401196	0.883171	16618.126953
5497.919046	1.354841	0.883171	18070.517578
5497.919995	1.313580	0.883171	19317.105469
5497.920868	1.273689	0.883171	20429.035156
5497.921934	0.632494	0.883171	21103.273437
5497.922948	0.090359	0.883171	21194.896484
5497.923837	0.090439	0.883171	21275.296875
5497.924796	0.090619	0.883171	21362.201172
5497.925842	0.090516	0.883171	21456.880859
5497.926772	0.090476	0.883171	21541.023437
5497.927632	0.090450	0.883171	21618.810547
5497.928693	0.090557	0.883171	21714.890625
5497.929680	0.090399	0.883171	21804.115234
5497.930558	0.090564	0.883171	21883.630859
5497.931541	0.090571	0.883171	21972.662109
5498.940350	1.437422	0.826360	612.341675
5498.941315	1.877695	0.826360	2424.317383
5498.942368	1.823141	0.826360	4344.084961
5498.943301	1.763954	0.826360	5989.854004
5498.944163	1.711348	0.826360	7465.035645
5498.945239	1.651619	0.826360	9242.177734
5498.946245	1.596226	0.826360	10847.980469
5498.947134	1.549673	0.826360	12225.639648
5498.948116	1.500150	0.826360	13698.787109
5498.949161	1.449192	0.826360	15213.192383
5498.950071	1.407667	0.826360	16494.169922
5498.950936	1.367450	0.826360	17677.013672
5498.952022	1.320084	0.826360	19110.625000
5498.953021	1.275630	0.826360	20384.978516
5498.953903	0.915590	0.826360	21192.529297
5498.954900	0.096222	0.826360	21288.462891
5498.955968	0.090502	0.826360	21385.119141
5498.956867	0.090458	0.826360	21466.441406
5498.957780	0.090538	0.826360	21549.103516
5498.958656	0.090531	0.826360	21628.408203
5498.959659	0.090480	0.826360	21719.160156
5498.960579	0.090461	0.826360	21802.384766
5498.961457	0.090546	0.826360	21881.884766
5498.962410	0.090546	0.826360	21968.173828
5498.963334	0.090516	0.826360	22051.810547
5499.998759	1.530659	0.845788	789.820129
5499.999710	1.877084	0.845788	2574.926758
5500.000592	1.828521	0.845788	4187.681641
5500.001530	1.769579	0.845788	5847.546875
5500.002592	1.707140	0.845788	7660.529297
5500.003488	1.655398	0.845788	9143.765625
5500.004351	1.607461	0.845788	10531.003906
5500.005409	1.552258	0.845788	12173.292969
5500.006378	1.501926	0.845788	13628.659180
5500.007252	1.458874	0.845788	14903.715820
5500.008154	1.414816	0.845788	16179.879883
5500.009234	1.366516	0.845788	17655.716797
5500.010118	1.325588	0.845788	18827.537109
5500.011007	1.286188	0.845788	19970.957031
5500.012121	0.988396	0.845788	21072.029297
5500.013073	0.101232	0.845788	21168.402344
5500.013931	0.090388	0.845788	21245.955078
5500.014945	0.090586	0.845788	21337.808594
5500.015986	0.090509	0.845788	21432.029297
5500.016876	0.090505	0.845788	21512.578125
5500.017798	0.090498	0.845788	21596.017578
5500.018864	0.090601	0.845788	21692.597656
5500.019803	0.090472	0.845788	21777.550781
5500.020671	0.090487	0.845788	21856.093750
5500.021743	0.090582	0.845788	21953.197266
5501.031352	1.429871	0.838896	604.835266
5501.032372	1.878069	0.838896	2520.465576
5501.033282	1.829454	0.838896	4185.269043
5501.034148	1.774296	0.838896	5721.809082
5501.035252	1.709348	0.838896	7608.929687
5501.036235	1.652523	0.838896	9233.360352
5501.037115	1.603718	0.838896	10644.632812
5501.038006	1.555298	0.838896	12030.403320
5501.039094	1.501117	0.838896	13663.619141
5501.039980	1.455886	0.838896	14953.534180
5501.040845	1.415596	0.838896	16178.024414
5501.041883	1.368153	0.838896	17598.167969
5501.042837	1.324596	0.838896	18861.832031
5501.043725	1.286166	0.838896	20003.947266
5501.044595	1.128622	0.838896	20985.847656
5501.045703	0.120985	0.838896	21119.898437
5501.046617	0.090461	0.838896	21202.580078
5501.047480	0.090619	0.838896	21280.785156
5501.048545	0.090677	0.838896	21377.357422
5501.049524	0.090509	0.838896	21465.964844
5501.050389	0.090487	0.838896	21544.236328
5501.051480	0.090685	0.838896	21643.173828
5501.052515	0.090568	0.838896	21736.912109
5501.053408	0.090575	0.838896	21817.794922
5501.054333	0.090667	0.838896	21901.662109
5502.090212	1.481843	0.872343	686.093445
5502.091101	1.880936	0.872343	2358.245605
5502.092102	1.830978	0.872343	4191.054199
5502.093030	1.770385	0.872343	5833.971191
5502.093952	1.715936	0.872343	7416.064453
5502.094815	1.664403	0.872343	8852.444336
5502.095864	1.608190	0.872343	10539.435547
5502.096744	1.560494	0.872343	11912.670898
5502.097617	1.514268	0.872343	13234.626953
5502.098664	1.462057	0.872343	14765.400391
5502.099612	1.417647	0.872343	16109.329102
5502.100493	1.377118	0.872343	17322.570312
5502.101460	1.334883	0.872343	18613.402344
5502.102493	1.290253	0.872343	19946.234375
5502.103393	1.237357	0.872343	21059.855469
5502.104262	0.225341	0.872343	21255.675781
5502.105331	0.090597	0.872343	21352.523437
5502.106271	0.090546	0.872343	21437.636719
5502.107149	0.090575	0.872343	21517.162109
5502.108110	0.090604	0.872343	21604.232422
5502.109125	0.090582	0.872343	21696.173828
5502.110002	0.090615	0.872343	21775.642578
5502.110946	0.090648	0.872343	21861.214844
5502.112015	0.090637	0.872343	21958.105469
5502.112930	0.090586	0.872343	22040.992187
5503.123927	1.470095	0.840809	646.841919
5503.124794	1.880361	0.840809	2277.115234
5503.125837	1.829839	0.840809	4185.637207
5503.126725	1.773095	0.840809	5760.145020
5503.127594	1.720726	0.840809	7255.456055
5503.128563	1.665414	0.840809	8869.242187
5503.129504	1.612035	0.840809	10386.166992
5503.130417	1.563369	0.840809	11813.523437
5503.131298	1.516674	0.840809	13149.712891
5503.132339	1.465217	0.840809	14675.003906
5503.133241	1.422759	0.840809	15958.332031
5503.134110	1.382025	0.840809	17159.312500
5503.135167	1.334736	0.840809	18570.128906
5503.136124	1.293820	0.840809	19808.314453
5503.137006	1.256294	0.840809	20916.365234
5503.137954	0.356323	0.840809	21254.160156
5503.138989	0.090447	0.840809	21347.773437
5503.139873	0.090593	0.840809	21427.857422
5503.140734	0.090476	0.840809	21505.757812
5503.141768	0.090641	0.840809	21599.480469
5503.142723	0.090619	0.840809	21686.021484
5503.143587	0.090549	0.840809	21764.255859
5503.144490	0.090659	0.840809	21846.121094
5503.145575	0.090571	0.840809	21944.390625
5503.146467	0.090502	0.840809	22025.117187
5503.147357	0.090652	0.840809	22105.796875
5504.180743	1.461211	0.822384	733.527832
5504.181795	1.873953	0.822384	2704.926270
5504.182727	1.820925	0.822384	4402.028809
5504.183589	1.765953	0.822384	5924.280762
5504.184661	1.703200	0.822384	7750.110352
5504.185687	1.644631	0.822384	9437.501953
5504.186570	1.595665	0.822384	10846.474609
5504.187539	1.544945	0.822384	12343.526367
5504.188618	1.490456	0.822384	13951.728516
5504.189523	1.445859	0.822384	15260.231445
5504.190394	1.403606	0.822384	16482.771484
5504.191477	1.354453	0.822384	17949.644531
5504.192474	1.309929	0.822384	19255.644531
5504.193375	1.270968	0.822384	20400.787109
5504.194378	0.707183	0.822384	21110.091797
5504.195444	0.090612	0.822384	21206.683594
5504.196332	0.090524	0.822384	21287.068359
5504.197190	0.090516	0.822384	21364.730469
5504.198283	0.090677	0.822384	21463.841797
5504.199244	0.090564	0.822384	21550.873047
5504.200110	0.090549	0.822384	21629.289062
5504.201147	0.090641	0.822384	21723.283203
5504.202186	0.090527	0.822384	21817.341797
5504.203079	0.090513	0.822384	21898.169922
5504.204010	0.090637	0.822384	21982.552734
5505.216440	1.425663	0.879090	603.055359
5505.217425	1.877900	0.879090	2452.787354
5505.218473	1.823558	0.879090	4363.876465
5505.219393	1.765228	0.879090	5987.886719
5505.220257	1.711996	0.879090	7467.051270
5505.221304	1.652842	0.879090	9197.576172
5505.222306	1.597709	0.879090	10798.480469
5505.223195	1.550973	0.879090	12177.294922
5505.224173	1.500787	0.879090	13645.064453
5505.225231	1.449496	0.879090	15178.630859
5505.226142	1.406089	0.879090	16459.578125
5505.227007	1.363612	0.879090	17639.101562
5505.228122	1.315708	0.879090	19106.115234
5505.229104	1.274487	0.879090	20357.662109
5505.229977	0.938987	0.879090	21177.398437
5505.231061	0.092699	0.879090	21277.884766
5505.232105	0.090641	0.879090	21372.513672
5505.232997	0.090564	0.879090	21453.296875
5505.233918	0.090593	0.879090	21536.732422
5505.234784	0.090527	0.879090	21615.128906
5505.235751	0.090557	0.879090	21702.697266
5505.236695	0.090516	0.879090	21788.144531
5505.237569	0.090568	0.879090	21867.300781
5505.238563	0.090612	0.879090	21957.369141
5505.239453	0.090619	0.879090	22038.019531
5506.272207	1.464320	0.876311	645.765137
5506.273086	1.881310	0.876311	2299.436523
5506.274077	1.832270	0.876311	4115.216309
5506.275141	1.765206	0.876311	5993.395996
5506.276053	1.710048	0.876311	7552.959473
5506.276924	1.657397	0.876311	8996.552734
5506.278038	1.598394	0.876311	10777.163086
5506.279010	1.547834	0.876311	12281.658203
5506.279882	1.502395	0.876311	13591.747070
5506.280941	1.450232	0.876311	15127.542969
5506.281986	1.401585	0.876311	16592.199219
5506.282877	1.359635	0.876311	17803.634766
5506.283793	1.319077	0.876311	19011.910156
5506.284871	1.270258	0.876311	20381.248047
5506.285828	0.810007	0.876311	21156.425781
5506.286688	0.093552	0.876311	21236.880859
5506.287739	0.090652	0.876311	21332.156250
5506.288765	0.090582	0.876311	21425.093750
5506.289641	0.090568	0.876311	21504.431641
5506.290595	0.090619	0.876311	21590.882812
5506.291630	0.090630	0.876311	21684.685547
5506.292544	0.090586	0.876311	21767.480469
5506.293461	0.090502	0.876311	21850.470703
5506.294319	0.090692	0.876311	21928.285156
5506.295342	0.090549	0.876311	22020.917969
5507.308551	1.512781	0.827314	750.339294
5507.309431	1.880054	0.827314	2404.786377
5507.310357	1.832655	0.827314	4101.825195
5507.311411	1.765789	0.827314	5962.966309
5507.312365	1.709147	0.827314	7593.492187
5507.313231	1.658529	0.827314	9029.778320
5507.314295	1.601063	0.827314	10733.309570
5507.315329	1.546172	0.827314	12332.050781
5507.316216	1.499744	0.827314	13662.323242
5507.317184	1.453290	0.827314	15069.107422
5507.318246	1.402566	0.827314	16558.632812
5507.319166	1.359913	0.827314	17809.753906
5507.320027	1.320747	0.827314	18946.917969
5507.321083	1.276718	0.827314	20295.130859
5507.322108	0.804174	0.827314	21119.408203
5507.322992	0.092996	0.827314	21201.617187
5507.323978	0.090575	0.827314	21290.923828
5507.325041	0.090612	0.827314	21387.244141
5507.325948	0.090535	0.827314	21469.359375
5507.326812	0.090604	0.827314	21547.640625
5507.327917	0.090663	0.827314	21647.822266
5507.328888	0.090491	0.827314	21735.689453
5507.329754	0.090571	0.827314	21814.125000
5507.330822	0.090681	0.827314	21910.972656
5507.331871	0.090549	0.827314	22005.958984
5508.362208	1.463470	0.864902	652.707825
5508.363082	1.880947	0.864902	2296.655762
5508.363945	1.839265	0.864902	3883.941650
5508.364991	1.774684	0.864902	5740.260742
5508.365872	1.720122	0.864902	7255.688477
5508.366749	1.669149	0.864902	8719.532227
5508.367623	1.618114	0.864902	10133.763672
5508.368689	1.563347	0.864902	11800.291992
5508.369583	1.517355	0.864902	13156.806641
5508.370449	1.471743	0.864902	14431.335937
5508.371559	1.420565	0.864902	16008.163086
5508.372473	1.377144	0.864902	17266.873047
5508.373351	1.338292	0.864902	18441.894531
5508.374363	1.295112	0.864902	19752.548828
5508.375373	1.241089	0.864902	21006.048828
5508.376259	0.241073	0.864902	21219.638672
5508.377114	0.090513	0.864902	21297.027344
5508.378205	0.090656	0.864902	21395.931641
5508.379116	0.090546	0.864902	21478.417969
5508.379981	0.090568	0.864902	21556.759766
5508.380955	0.090593	0.864902	21644.998047
5508.381961	0.090502	0.864902	21736.042969
5508.382853	0.090557	0.864902	21816.820312
5508.383716	0.090553	0.864902	21894.966797
5508.384788	0.090590	0.864902	21992.078125
5509.400646	1.562102	0.852737	846.659302
5509.401690	1.873150	0.852737	2802.228516
5509.402579	1.821171	0.852737	4421.249023
5509.403516	1.762676	0.852737	6072.875977
5509.404569	1.699537	0.852737	7862.488770
5509.405506	1.646374	0.852737	9405.141602
5509.406380	1.597998	0.852737	10801.791992
5509.407439	1.542759	0.852737	12435.573242
5509.408461	1.490043	0.852737	13958.396484
5509.409360	1.446416	0.852737	15258.724609
5509.410334	1.400918	0.852737	16623.218750
5509.411390	1.352366	0.852737	18051.316406
5509.412320	1.311595	0.852737	19271.099609
5509.413186	1.273762	0.852737	20374.177734
5509.414293	0.642257	0.852737	21085.156250
5509.415274	0.090469	0.852737	21173.906250
5509.416160	0.090582	0.852737	21254.162109
5509.417165	0.090641	0.852737	21345.255859
5509.418214	0.090553	0.852737	21440.246094
5509.419104	0.090461	0.852737	21520.755859
5509.419961	0.090626	0.852737	21598.421875
5509.421054	0.090688	0.852737	21697.544922
5509.422028	0.090502	0.852737	21785.693359
5509.422884	0.090483	0.852737	21863.146484
5509.423947	0.090685	0.852737	21959.544922
5510.453178	1.444200	0.878965	612.340942
5510.454285	1.874073	0.878965	2686.939941
5510.455254	1.819871	0.878965	4450.394531
5510.456128	1.765184	0.878965	5993.165527
5510.457200	1.701551	0.878965	7817.228516
5510.458243	1.642551	0.878965	9530.409180
5510.459136	1.593322	0.878965	10953.245117
5510.460078	1.544462	0.878965	12408.127930
5510.461144	1.489102	0.878965	13995.509766
5510.462090	1.442549	0.878965	15360.161133
5510.463015	1.398519	0.878965	16653.791016
5510.463894	1.358013	0.878965	17847.484375
5510.464935	1.312727	0.878965	19214.033203
5510.465824	1.270353	0.878965	20343.376953
5510.466693	0.960604	0.878965	21178.142578
5510.467636	0.102187	0.878965	21274.505859
5510.468620	0.090546	0.878965	21363.603516
5510.469532	0.090677	0.878965	21446.300781
5510.470406	0.090593	0.878965	21525.478516
5510.471442	0.090685	0.878965	21619.427734
5510.472359	0.090527	0.878965	21702.441406
5510.473240	0.090634	0.878965	21782.289062
5510.474101	0.090612	0.878965	21860.304687
5510.475165	0.090505	0.878965	21956.601562
5510.476047	0.090542	0.878965	22036.458984
5511.493704	1.564589	0.884025	887.121765
5511.494758	1.872470	0.884025	2860.704590
5511.495643	1.819570	0.884025	4471.024414
5511.496545	1.761713	0.884025	6060.088867
5511.497632	1.698882	0.884025	7906.773437
5511.498579	1.644752	0.884025	9464.353516
5511.499449	1.596628	0.884025	10853.419922
5511.500475	1.542429	0.884025	12435.952148
5511.501517	1.489032	0.884025	13987.523437
5511.502410	1.445131	0.884025	15278.025391
5511.503363	1.400508	0.884025	16612.708984
5511.504431	1.351516	0.884025	18056.128906
5511.505371	1.310277	0.884025	19287.789062
5511.506243	1.268199	0.884025	20393.658203
5511.507312	0.663464	0.884025	21102.902344
5511.508322	0.090494	0.884025	21194.300781
5511.509218	0.090542	0.884025	21275.425781
5511.510182	0.090685	0.884025	21362.845703
5511.511233	0.090615	0.884025	21458.082031
5511.512146	0.090542	0.884025	21540.746094
5511.513008	0.090612	0.884025	21618.853516
5511.514094	0.090663	0.884025	21717.312500
5511.515088	0.090513	0.884025	21807.281250
5511.515968	0.090516	0.884025	21886.935547
5511.516954	0.090677	0.884025	21976.343750
5512.544262	1.497012	0.879239	745.511841
5512.545200	1.877834	0.879239	2506.920410
5512.546070	1.830941	0.879239	4099.838867
5512.547134	1.764792	0.879239	5977.578125
5512.548157	1.704020	0.879239	7720.790527
5512.549049	1.652472	0.879239	9194.794922
5512.549998	1.601038	0.879239	10714.179687
5512.551063	1.545033	0.879239	12359.639648
5512.551988	1.496232	0.879239	13743.654297
5512.552856	1.451624	0.879239	15003.664062
5512.553923	1.402299	0.879239	16499.916016
5512.554922	1.356562	0.879239	17855.121094
5512.555800	1.318685	0.879239	19012.925781
5512.556788	1.278274	0.879239	20275.861328
5512.557849	0.777074	0.879239	21100.335937
5512.558744	0.092303	0.879239	21182.947266
5512.559600	0.090626	0.879239	21260.523437
5512.560686	0.090641	0.879239	21358.958984
5512.561678	0.090524	0.879239	21448.757812
5512.562559	0.090513	0.879239	21528.500000
5512.563555	0.090736	0.879239	21618.873047
5512.564608	0.090630	0.879239	21714.306641
5512.565498	0.090487	0.879239	21794.839844
5512.566381	0.090564	0.879239	21874.808594
5512.567475	0.090626	0.879239	21973.953125
5513.586762	1.555825	0.903546	883.708679
5513.587835	1.871137	0.903546	2891.438232
5513.588725	1.817670	0.903546	4509.164062
5513.589609	1.759819	0.903546	6064.844238
5513.590711	1.696996	0.903546	7934.933594
5513.591660	1.642928	0.903546	9494.072266
5513.592524	1.595376	0.903546	10872.477539
5513.593555	1.541473	0.903546	12461.736328
5513.594600	1.488069	0.903546	14016.768555
5513.595488	1.443717	0.903546	15298.789062
5513.596418	1.399453	0.903546	16600.281250
5513.597506	1.350740	0.903546	18069.886719
5513.598435	1.306732	0.903546	19283.841797
5513.599307	1.267086	0.903546	20388.740234
5513.600355	0.675428	0.903546	21096.589844
5513.601378	0.090582	0.903546	21189.255859
5513.602265	0.090527	0.903546	21269.552734
5513.603216	0.090630	0.903546	21355.742187
5513.604272	0.090637	0.903546	21451.455078
5513.605197	0.090637	0.903546	21535.294922
5513.606059	0.090615	0.903546	21613.404297
5513.607149	0.090688	0.903546	21712.253906
5513.608136	0.090634	0.903546	21801.708984
5513.609020	0.090568	0.903546	21881.771484
5513.609979	0.090667	0.903546	21968.720703
5514.634721	1.491943	0.868911	680.326172
5514.635598	1.880548	0.868911	2329.566895
5514.636598	1.830271	0.868911	4159.837891
5514.637660	1.763379	0.868911	6032.546387
5514.638556	1.709026	0.868911	7563.833496
5514.639419	1.657493	0.868911	8994.250000
5514.640518	1.599727	0.868911	10752.349609
5514.641480	1.548479	0.868911	12241.986328
5514.642349	1.503626	0.868911	13548.636719
5514.643353	1.452462	0.868911	15006.908203
5514.644420	1.401940	0.868911	16502.777344
5514.645312	1.360994	0.868911	17716.783203
5514.646212	1.321699	0.868911	18906.312500
5514.647298	1.276538	0.868911	20292.632812
5514.648251	0.898663	0.868911	21149.058594
5514.649123	0.096562	0.868911	21233.261719
5514.650145	0.090663	0.868911	21325.919922
5514.651175	0.090557	0.868911	21419.193359
5514.652072	0.090612	0.868911	21500.472656
5514.653015	0.090652	0.868911	21585.957031
5514.654060	0.090663	0.868911	21680.699219
5514.655014	0.090513	0.868911	21767.048828
5514.655928	0.090531	0.868911	21849.794922
5514.656791	0.090619	0.868911	21928.000000
5514.657843	0.090590	0.868911	22023.300781
5515.678657	1.442780	0.856044	616.066895
5515.679597	1.878398	0.856044	2381.761230
5515.680648	1.824426	0.856044	4299.233398
5515.681584	1.765389	0.856044	5951.637695
5515.682448	1.713226	0.856044	7431.865234
5515.683501	1.653519	0.856044	9173.021484
5515.684527	1.597405	0.856044	10811.958984
5515.685409	1.550819	0.856044	12179.781250
5515.686388	1.500893	0.856044	13649.156250
5515.687445	1.447621	0.856044	15179.291016
5515.688356	1.403708	0.856044	16458.070312
5515.689258	1.362257	0.856044	17686.826172
5515.690148	1.322648	0.856044	18863.982422
5515.691120	1.281888	0.856044	20109.978516
5515.692048	1.088632	0.856044	21120.228516
5515.692941	0.120286	0.856044	21227.644531
5515.693868	0.090531	0.856044	21311.566406
5515.694849	0.090560	0.856044	21400.406250
5515.695768	0.090553	0.856044	21483.625000
5515.696630	0.090564	0.856044	21561.691406
5515.697661	0.090571	0.856044	21655.070312
5515.698538	0.090557	0.856044	21734.488281
5515.699404	0.090601	0.856044	21812.949219
5515.700285	0.090590	0.856044	21892.757812
5515.701316	0.090575	0.856044	21986.140625
5516.725690	1.434759	0.891711	609.772766
5516.726759	1.875260	0.891711	2614.425781
5516.727769	1.819171	0.891711	4451.788574
5516.728663	1.762277	0.891711	6027.263672
5516.729640	1.705173	0.891711	7693.217773
5516.730695	1.644591	0.891711	9428.261719
5516.731626	1.593578	0.891711	10911.882812
5516.732495	1.546124	0.891711	12255.464844
5516.733580	1.491683	0.891711	13873.941406
5516.734573	1.443208	0.891711	15307.046875
5516.735451	1.402123	0.891711	16538.111328
5516.736441	1.357870	0.891711	17882.402344
5516.737499	1.312335	0.891711	19270.853516
5516.738384	1.274279	0.891711	20398.589844
5516.739245	0.848265	0.891711	21128.947266
5516.740333	0.092150	0.891711	21229.207031
5516.741303	0.090568	0.891711	21317.058594
5516.742159	0.090491	0.891711	21394.519531
5516.743215	0.090667	0.891711	21490.263672
5516.744274	0.090568	0.891711	21586.173828
5516.745149	0.090505	0.891711	21665.365234
5516.746083	0.090626	0.891711	21750.009766
5516.747152	0.090542	0.891711	21846.798828
5516.748100	0.090509	0.891711	21932.601562
5516.748963	0.090469	0.891711	22010.675781
5517.770774	1.510203	0.928558	753.591125
5517.771664	1.878984	0.928558	2425.887207
5517.772543	1.833116	0.928558	4037.196533
5517.773451	1.774083	0.928558	5648.063965
5517.774478	1.712992	0.928558	7407.306641
5517.775399	1.660785	0.928558	8936.889648
5517.776277	1.612383	0.928558	10352.561523
5517.777293	1.559469	0.928558	11936.982422
5517.778210	1.510159	0.928558	13321.797852
5517.779138	1.464565	0.928558	14680.914062
5517.780004	1.420646	0.928558	15911.193359
5517.781027	1.374415	0.928558	17317.220703
5517.781927	1.334711	0.928558	18518.460937
5517.782814	1.295068	0.928558	19667.187500
5517.783806	1.250998	0.928558	20908.177734
5517.784753	0.264481	0.928558	21158.640625
5517.785630	0.090417	0.928558	21237.937500
5517.786572	0.090634	0.928558	21323.314453
5517.787598	0.090465	0.928558	21416.130859
5517.788479	0.090582	0.928558	21495.933594
5517.789340	0.090491	0.928558	21573.845703
5517.790405	0.090549	0.928558	21670.281250
5517.791340	0.090461	0.928558	21754.863281
5517.792212	0.090549	0.928558	21833.822266
5517.793151	0.090582	0.928558	21918.878906
5518.817313	1.526433	0.924525	783.060181
5518.818191	1.879032	0.924525	2432.850098
5518.819065	1.830857	0.924525	4033.019043
5518.820163	1.763928	0.924525	5969.812500
5518.821130	1.707107	0.924525	7620.584961
5518.821995	1.657057	0.924525	9053.939453
5518.823047	1.599705	0.924525	10736.829102
5518.824083	1.545981	0.924525	12338.465820
5518.824974	1.499465	0.924525	13674.489258
5518.825896	1.451792	0.924525	15013.041016
5518.826981	1.401716	0.924525	16533.902344
5518.827901	1.359353	0.924525	17784.507812
5518.828769	1.320121	0.924525	18930.373047
5518.829809	1.274839	0.924525	20256.205078
5518.830838	0.820345	0.924525	21100.339844
5518.831731	0.092988	0.924525	21183.378906
5518.832689	0.090612	0.924525	21270.185547
5518.833739	0.090670	0.924525	21365.388672
5518.834660	0.090531	0.924525	21448.767578
5518.835521	0.090520	0.924525	21526.705078
5518.836596	0.090593	0.924525	21624.093750
5518.837594	0.090476	0.924525	21714.388672
5518.838493	0.090458	0.924525	21795.710937
5518.839470	0.090571	0.924525	21884.199219
5518.840528	0.090557	0.924525	21980.007812
5519.862214	1.446277	0.883610	629.130371
5519.863080	1.879358	0.883610	2256.654297
5519.864122	1.828711	0.883610	4162.170898
5519.865002	1.772523	0.883610	5721.991211
5519.865880	1.719946	0.883610	7232.104004
5519.866877	1.664355	0.883610	8891.466797
5519.867822	1.611090	0.883610	10413.947266
5519.868694	1.563746	0.883610	11777.534180
5519.869654	1.514506	0.883610	13231.459961
5519.870688	1.461943	0.883610	14743.109375
5519.871584	1.418855	0.883610	16014.403320
5519.872458	1.377927	0.883610	17218.710937
5519.873506	1.331030	0.883610	18613.630859
5519.874458	1.290956	0.883610	19842.621094
5519.875339	1.255521	0.883610	20948.734375
5519.876281	0.318010	0.883610	21248.300781
5519.877339	0.090531	0.883610	21344.082031
5519.878227	0.090513	0.883610	21424.457031
5519.879088	0.090630	0.883610	21502.490234
5519.880133	0.090641	0.883610	21597.208984
5519.881089	0.090513	0.883610	21683.738281
5519.881958	0.090630	0.883610	21762.496094
5519.882875	0.090623	0.883610	21845.597656
5519.883946	0.090575	0.883610	21942.603516
5519.884816	0.090568	0.883610	22021.396484
5519.885697	0.090670	0.883610	22101.277344
5520.908225	1.440300	0.848845	617.888855
5520.909102	1.880365	0.848845	2266.968994
5520.910081	1.833204	0.848845	4061.676270
5520.911039	1.771285	0.848845	5758.567871
5520.911963	1.716453	0.848845	7344.570312
5520.912834	1.665707	0.848845	8795.400391
5520.913873	1.609830	0.848845	10468.013672
5520.914753	1.562315	0.848845	11842.850586
5520.915620	1.516549	0.848845	13157.698242
5520.916551	1.469092	0.848845	14525.422852
5520.917554	1.420902	0.848845	15950.587891
5520.918477	1.378466	0.848845	17222.912109
5520.919353	1.338640	0.848845	18395.560547
5520.920388	1.293970	0.848845	19734.818359
5520.921308	1.252537	0.848845	20887.152344
5520.922194	0.361707	0.848845	21207.625000
5520.923063	0.090535	0.848845	21286.298828
5520.924096	0.090549	0.848845	21379.835937
5520.924972	0.090494	0.848845	21459.109375
5520.925831	0.090677	0.848845	21537.001953
5520.926913	0.090630	0.848845	21635.064453
5520.927829	0.090535	0.848845	21717.994141
5520.928696	0.090612	0.848845	21796.554687
5520.929648	0.090641	0.848845	21882.845703
5520.930667	0.090582	0.848845	21975.148437
5520.931562	0.090601	0.848845	22056.236328
5521.953798	1.509701	0.936232	738.243713
5521.954677	1.879109	0.936232	2389.980225
5521.955638	1.830117	0.936232	4148.722656
5521.956711	1.761713	0.936232	6039.040039
5521.957646	1.706334	0.936232	7634.462402
5521.958508	1.655984	0.936232	9061.920898
5521.959568	1.598372	0.936232	10756.195312
5521.960592	1.545139	0.936232	12338.417969
5521.961471	1.498740	0.936232	13655.810547
5521.962446	1.450675	0.936232	15070.218750
5521.963512	1.400120	0.936232	16562.746094
5521.964425	1.359130	0.936232	17803.630859
5521.965294	1.318982	0.936232	18949.826172
5521.966394	1.273770	0.936232	20350.972656
5521.967394	0.763107	0.936232	21114.080078
5521.968289	0.091948	0.936232	21196.373047
5521.969276	0.090703	0.936232	21285.896484
5521.970323	0.090656	0.936232	21380.812500
5521.971210	0.090535	0.936232	21461.117187
5521.972072	0.090582	0.936232	21539.199219
5521.973162	0.090699	0.936232	21638.062500
5521.974132	0.090571	0.936232	21725.916016
5521.974996	0.090502	0.936232	21804.109375
5521.976043	0.090677	0.936232	21899.048828
5521.977084	0.090575	0.936232	21993.337891
5523.000789	1.453813	0.926624	641.131714
5523.001665	1.879709	0.926624	2287.757080
5523.002604	1.834435	0.926624	4010.291504
5523.003655	1.767931	0.926624	5868.386719
5523.004537	1.714424	0.926624	7380.508789
5523.005398	1.664645	0.926624	8813.767578
5523.006432	1.607834	0.926624	10476.268555
5523.007390	1.557140	0.926624	11968.008789
5523.008268	1.512078	0.926624	13295.613281
5523.009178	1.464668	0.926624	14628.460937
5523.010278	1.413336	0.926624	16183.130859
5523.011174	1.371680	0.926624	17412.156250
5523.012042	1.332711	0.926624	18568.949219
5523.013087	1.287426	0.926624	19914.308594
5523.014057	1.194921	0.926624	21073.380859
5523.014930	0.173474	0.926624	21224.824219
5523.015963	0.090597	0.926624	21318.410156
5523.016993	0.090568	0.926624	21411.695312
5523.017883	0.090564	0.926624	21492.296875
5523.018802	0.090630	0.926624	21575.585937
5523.019867	0.090560	0.926624	21672.033203
5523.020801	0.090601	0.926624	21756.654297
5523.021662	0.090568	0.926624	21834.632812
5523.022707	0.090681	0.926624	21929.394531
5523.023726	0.090612	0.926624	22021.728516
5524.045881	1.556602	0.948961	837.451599
5524.046916	1.871832	0.948961	2774.798096
5524.047813	1.820002	0.948961	4407.340332
5524.048764	1.760299	0.948961	6081.384766
5524.049826	1.697941	0.948961	7884.597656
5524.050768	1.644888	0.948961	9434.082031
5524.051638	1.596050	0.948961	10822.645508
5524.052693	1.542158	0.948961	12449.622070
5524.053703	1.491032	0.948961	13955.564453
5524.054595	1.446530	0.948961	15245.869141
5524.055582	1.399640	0.948961	16627.314453
5524.056641	1.351176	0.948961	18058.208984
5524.057550	1.306912	0.948961	19246.191406
5524.058418	1.267548	0.948961	20346.421875
5524.059514	0.662655	0.948961	21072.691406
5524.060497	0.090546	0.948961	21161.697266
5524.061374	0.090667	0.948961	21241.210937
5524.062378	0.090663	0.948961	21332.236328
5524.063432	0.090656	0.948961	21427.787109
5524.064313	0.090557	0.948961	21507.568359
5524.065171	0.090677	0.948961	21585.369141
5524.066280	0.090677	0.948961	21685.929687
5524.067244	0.090579	0.948961	21773.248047
5524.068116	0.090597	0.948961	21852.248047
5524.069137	0.090667	0.948961	21944.818359
5525.091766	1.443636	0.873853	607.770935
5525.092877	1.873876	0.873853	2689.646973
5525.093836	1.819717	0.873853	4434.755371
5525.094712	1.764291	0.873853	5980.274414
5525.095737	1.703632	0.873853	7726.496582
5525.096774	1.644745	0.873853	9432.096680
5525.097669	1.595299	0.873853	10859.889648
5525.098600	1.546875	0.873853	12300.030273
5525.099666	1.491808	0.873853	13890.296875
5525.100621	1.444966	0.873853	15270.239258
5525.101487	1.403027	0.873853	16485.261719
5525.102540	1.355409	0.873853	17912.507812
5525.103553	1.310892	0.873853	19240.441406
5525.104439	1.272839	0.873853	20368.177734
5525.105432	0.762957	0.873853	21125.792969
5525.106487	0.091033	0.873853	21221.832031
5525.107396	0.090549	0.873853	21304.140625
5525.108252	0.090505	0.873853	21381.613281
5525.109326	0.090765	0.873853	21479.095703
5525.110319	0.090568	0.873853	21569.029297
5525.111186	0.090593	0.873853	21647.574219
5525.112153	0.090612	0.873853	21735.195312
5525.113195	0.090645	0.873853	21829.646484
5525.114112	0.090535	0.873853	21912.666016
5525.114977	0.090612	0.873853	21991.044922
5526.137295	1.455619	0.963806	644.839172
5526.138214	1.879127	0.963806	2371.757080
5526.139082	1.835189	0.963806	3964.701416
5526.140131	1.770839	0.963806	5822.311035
5526.141010	1.716394	0.963806	7331.021484
5526.141890	1.665905	0.963806	8797.017578
5526.142850	1.613408	0.963806	10345.889648
5526.143807	1.562047	0.963806	11840.768555
5526.144724	1.514952	0.963806	13229.980469
5526.145609	1.469183	0.963806	14530.208008
5526.146663	1.419133	0.963806	16025.974609
5526.147563	1.376243	0.963806	17264.593750
5526.148447	1.336809	0.963806	18446.332031
5526.149380	1.296628	0.963806	19656.085937
5526.150372	1.251819	0.963806	20897.890625
5526.151266	0.354353	0.963806	21214.681641
5526.152121	0.090396	0.963806	21291.970703
5526.153233	0.090575	0.963806	21392.689453
5526.154108	0.090575	0.963806	21471.943359
5526.154971	0.090531	0.963806	21550.072266
5526.156034	0.090626	0.963806	21646.408203
5526.157002	0.090560	0.963806	21734.070312
5526.157881	0.090535	0.963806	21813.650391
5526.158745	0.090590	0.963806	21891.919922
5526.159866	0.090579	0.963806	21993.458984
5526.160774	0.090557	0.963806	22075.683594
5527.183352	1.508818	0.906664	721.215149
5527.184236	1.879479	0.906664	2382.674316
5527.185199	1.830615	0.906664	4145.556641
5527.186250	1.763668	0.906664	5999.171875
5527.187166	1.708099	0.906664	7563.791016
5527.188029	1.657863	0.906664	8994.526367
5527.189099	1.600924	0.906664	10707.515625
5527.190107	1.547205	0.906664	12267.097656
5527.190988	1.501285	0.906664	13589.730469
5527.191981	1.452920	0.906664	15032.479492
5527.193046	1.402331	0.906664	16525.962891
5527.193939	1.360411	0.906664	17740.810547
5527.194809	1.320571	0.906664	18889.707031
5527.195902	1.272653	0.906664	20280.716797
5527.196885	0.849368	0.906664	21115.644531
5527.197768	0.094449	0.906664	21199.042969
5527.198775	0.090637	0.906664	21290.314453
5527.199815	0.090582	0.906664	21384.519531
5527.200709	0.090601	0.906664	21465.515625
5527.201575	0.090520	0.906664	21543.906250
5527.202686	0.090648	0.906664	21644.617187
5527.203638	0.090549	0.906664	21730.820312
5527.204508	0.090582	0.906664	21809.626953
5527.205543	0.090725	0.906664	21903.527344
5527.206578	0.090586	0.906664	21997.283203
5528.228371	1.467858	0.924179	750.075317
5528.229439	1.870393	0.924179	2747.655273
5528.230373	1.816868	0.924179	4444.609863
5528.231239	1.761636	0.924179	5970.186523
5528.232318	1.699028	0.924179	7803.437988
5528.233321	1.642354	0.924179	9450.718750
5528.234216	1.593633	0.924179	10877.020508
5528.235203	1.542418	0.924179	12399.387695
5528.236255	1.488120	0.924179	13964.889648
5528.237157	1.444069	0.924179	15267.439453
5528.238020	1.401090	0.924179	16476.580078
5528.239120	1.352611	0.924179	17964.453125
5528.240111	1.308589	0.924179	19261.265625
5528.240992	1.268339	0.924179	20378.671875
5528.241994	0.713232	0.924179	21093.330078
5528.243047	0.090765	0.924179	21188.906250
5528.243928	0.090663	0.924179	21268.779297
5528.244797	0.090652	0.924179	21347.556641
5528.245897	0.090626	0.924179	21447.246094
5528.246857	0.090601	0.924179	21534.222656
5528.247731	0.090564	0.924179	21613.375000
5528.248747	0.090718	0.924179	21705.544922
5528.249786	0.090582	0.924179	21799.660156
5528.250679	0.090637	0.924179	21880.599609
5528.251609	0.090670	0.924179	21964.923828
5529.274889	1.459808	0.907732	735.743408
5529.275949	1.872063	0.907732	2720.130127
5529.276886	1.818087	0.907732	4423.677734
5529.277811	1.760072	0.907732	6051.744141
5529.278677	1.707499	0.907732	7530.437988
5529.279708	1.649667	0.907732	9231.244141
5529.280598	1.600583	0.907732	10655.763672
5529.281478	1.554430	0.907732	12023.662109
5529.282418	1.505889	0.907732	13439.197266
5529.283402	1.457098	0.907732	14872.982422
5529.284310	1.414548	0.907732	16157.392578
5529.285195	1.373525	0.907732	17372.962891
5529.286249	1.327753	0.907732	18772.414062
5529.287153	1.288429	0.907732	19937.154297
5529.288030	1.232629	0.907732	21018.169922
5529.288913	0.229647	0.907732	21220.949219
5529.289961	0.090487	0.907732	21315.779297
5529.290843	0.090568	0.907732	21395.660156
5529.291710	0.090615	0.907732	21474.222656
5529.292697	0.090652	0.907732	21563.695312
5529.293614	0.090527	0.907732	21646.708984
5529.294491	0.090531	0.907732	21726.105469
5529.295449	0.090699	0.907732	21812.996094
5529.296459	0.090582	0.907732	21904.484375
5529.297346	0.090590	0.907732	21984.837891
5530.320316	1.439257	0.894571	614.562561
5530.321182	1.877574	0.894571	2240.541992
5530.322297	1.823511	0.894571	4273.756348
5530.323267	1.762115	0.894571	5983.008301
5530.324140	1.708975	0.894571	7474.943359
5530.325192	1.648784	0.894571	9209.464844
5530.326241	1.591545	0.894571	10878.996094
5530.327134	1.544897	0.894571	12258.589844
5530.328053	1.497510	0.894571	13634.801758
5530.329113	1.445013	0.894571	15166.515625
5530.330072	1.399823	0.894571	16508.945312
5530.330943	1.360389	0.894571	17693.843750
5530.332009	1.315983	0.894571	19096.681641
5530.333016	1.274410	0.894571	20380.013672
5530.333904	0.878518	0.894571	21160.136719
5530.334868	0.095977	0.894571	21252.658203
5530.335906	0.090619	0.894571	21346.720703
5530.336821	0.090634	0.894571	21429.650391
5530.337677	0.090582	0.894571	21507.189453
5530.338736	0.090571	0.894571	21603.103516
5530.339738	0.090571	0.894571	21693.855469
5530.340606	0.090531	0.894571	21772.435547
5530.341571	0.090677	0.894571	21859.939453
5530.342615	0.090590	0.894571	21954.515625
5530.343539	0.090674	0.894571	22038.298828
5531.366861	1.452092	0.947487	634.564331
5531.367730	1.875081	0.947487	2264.009277
5531.368812	1.823152	0.947487	4236.659180
5531.369807	1.760208	0.947487	5988.065430
5531.370700	1.706638	0.947487	7512.093262
5531.371692	1.650963	0.947487	9149.848633
5531.372740	1.595039	0.947487	10821.449219
5531.373624	1.547974	0.947487	12189.857422
5531.374511	1.499062	0.947487	13519.525391
5531.375605	1.447064	0.947487	15102.613281
5531.376565	1.402390	0.947487	16448.908203
5531.377428	1.362825	0.947487	17625.025391
5531.378452	1.319132	0.947487	18975.816406
5531.379511	1.277959	0.947487	20329.175781
5531.380385	0.939573	0.947487	21150.363281
5531.381326	0.099690	0.947487	21244.171875
5531.382393	0.090597	0.947487	21340.837891
5531.383326	0.090593	0.947487	21425.361328
5531.384192	0.090582	0.947487	21503.804687
5531.385246	0.090685	0.947487	21599.386719
5531.386265	0.090590	0.947487	21691.697266
5531.387159	0.090472	0.947487	21772.580078
5531.388116	0.090707	0.947487	21859.386719
5531.389177	0.090659	0.947487	21955.576172
5531.390099	0.090571	0.947487	22039.082031
5532.411923	1.513872	0.963628	766.019226
5532.412922	1.870217	0.963628	2634.366211
5532.413819	1.819640	0.963628	4266.583008
5532.414803	1.758461	0.963628	5996.908203
5532.415871	1.694381	0.963628	7806.507324
5532.416773	1.642504	0.963628	9288.045898
5532.417639	1.593856	0.963628	10668.325195
5532.418739	1.539423	0.963628	12361.690430
5532.419703	1.490354	0.963628	13798.391602
5532.420585	1.447610	0.963628	15075.183594
5532.421611	1.400903	0.963628	16512.509766
5532.422656	1.354091	0.963628	17927.535156
5532.423544	1.316158	0.963628	19096.283203
5532.424438	1.279904	0.963628	20240.517578
5532.425527	0.737285	0.963628	21043.421875
5532.426469	0.091066	0.963628	21129.205078
5532.427329	0.090645	0.963628	21207.160156
5532.428365	0.090634	0.963628	21301.056641
5532.429403	0.090560	0.963628	21395.058594
5532.430275	0.090542	0.963628	21474.011719
5532.431204	0.090732	0.963628	21558.302734
5532.432260	0.090699	0.963628	21654.082031
5532.433197	0.090542	0.963628	21738.919922
5532.434060	0.090560	0.963628	21817.074219
5532.435087	0.090670	0.963628	21910.193359
5533.458461	1.520284	0.953691	775.345032
5533.459475	1.869972	0.953691	2671.496582
5533.460358	1.820171	0.953691	4278.707520
5533.461351	1.758743	0.953691	6025.139160
5533.462416	1.694894	0.953691	7830.201172
5533.463321	1.642991	0.953691	9317.107422
5533.464183	1.594230	0.953691	10691.333008
5533.465286	1.539675	0.953691	12389.594727
5533.466262	1.490032	0.953691	13843.865234
5533.467128	1.447178	0.953691	15097.121094
5533.468129	1.400054	0.953691	16498.574219
5533.469205	1.353951	0.953691	17955.425781
5533.470086	1.315994	0.953691	19114.816406
5533.470965	1.279395	0.953691	20239.404297
5533.472086	0.702711	0.953691	21027.142578
5533.473042	0.090776	0.953691	21113.923828
5533.473904	0.090564	0.953691	21191.990234
5533.474924	0.090762	0.953691	21284.566406
5533.475959	0.090568	0.953691	21378.304687
5533.476854	0.090586	0.953691	21459.378906
5533.477790	0.090692	0.953691	21544.267578
5533.478839	0.090696	0.953691	21639.408203
5533.479782	0.090535	0.953691	21724.783203
5533.480643	0.090579	0.953691	21802.771484
5533.481689	0.090641	0.953691	21897.582031
5534.503866	1.431339	0.919615	604.025146
5534.504891	1.872045	0.919615	2522.871094
5534.505925	1.815637	0.919615	4400.240234
5534.506820	1.759153	0.919615	5974.682129
5534.507786	1.701471	0.919615	7618.303223
5534.508846	1.640900	0.919615	9357.657227
5534.509768	1.591227	0.919615	10824.768555
5534.510639	1.545231	0.919615	12170.664062
5534.511715	1.491438	0.919615	13775.451172
5534.512717	1.442344	0.919615	15220.679687
5534.513609	1.400508	0.919615	16469.933594
5534.514602	1.356834	0.919615	17817.269531
5534.515658	1.312434	0.919615	19203.199219
5534.516577	1.275674	0.919615	20375.542969
5534.517453	0.836008	0.919615	21107.886719
5534.518524	0.091677	0.919615	21206.072266
5534.519484	0.090593	0.919615	21293.041016
5534.520360	0.090535	0.919615	21372.349609
5534.521365	0.090663	0.919615	21463.464844
5534.522419	0.090652	0.919615	21559.011719
5534.523296	0.090487	0.919615	21638.369141
5534.524161	0.090630	0.919615	21716.763672
5534.525262	0.090674	0.919615	21816.595703
5534.526212	0.090516	0.919615	21902.585937
5534.527069	0.090502	0.919615	21980.146484
5535.550394	1.429841	0.986417	601.963196
5535.551437	1.872070	0.986417	2554.532471
5535.552465	1.815542	0.986417	4420.909668
5535.553361	1.758827	0.986417	5996.818359
5535.554328	1.701310	0.986417	7641.984863
5535.555384	1.640984	0.986417	9374.864258
5535.556318	1.590396	0.986417	10860.293945
5535.557187	1.544363	0.986417	12202.345703
5535.558268	1.490449	0.986417	13813.521484
5535.559265	1.441564	0.986417	15250.760742
5535.560153	1.399830	0.986417	16493.810547
5535.561159	1.355976	0.986417	17857.921875
5535.562209	1.311995	0.986417	19235.515625
5535.563113	1.275689	0.986417	20388.738281
5535.563979	0.846815	0.986417	21122.080078
5535.565078	0.091663	0.986417	21222.816406
5535.566034	0.090535	0.986417	21309.367187
5535.566900	0.090634	0.986417	21387.855469
5535.567900	0.090619	0.986417	21478.474609
5535.568959	0.090619	0.986417	21574.439453
5535.569848	0.090593	0.986417	21654.976562
5535.570709	0.090641	0.986417	21733.017578
5535.571805	0.090729	0.986417	21832.457031
5535.572768	0.090469	0.986417	21919.578125
5535.573636	0.090608	0.986417	21998.226562
5536.595466	1.495558	0.908279	744.787781
5536.596365	1.874257	0.908279	2429.744385
5536.597232	1.826104	0.908279	4012.976074
5536.598342	1.758875	0.908279	5965.326660
5536.599313	1.701207	0.908279	7617.199219
5536.600184	1.651307	0.908279	9055.488281
5536.601261	1.593157	0.908279	10771.318359
5536.602308	1.539459	0.908279	12383.131836
5536.603206	1.492851	0.908279	13723.712891
5536.604131	1.447753	0.908279	15062.883789
5536.605204	1.397410	0.908279	16562.304687
5536.606142	1.355350	0.908279	17833.623047
5536.607008	1.318473	0.908279	18975.419922
5536.608061	1.276102	0.908279	20319.156250
5536.609088	0.739541	0.908279	21078.664062
5536.609958	0.091908	0.908279	21158.623047
5536.610925	0.090656	0.908279	21246.287109
5536.611976	0.090590	0.908279	21341.496094
5536.612895	0.090505	0.908279	21424.669922
5536.613752	0.090586	0.908279	21502.302734
5536.614801	0.090677	0.908279	21597.423828
5536.615804	0.090571	0.908279	21688.267578
5536.616696	0.090597	0.908279	21769.080078
5536.617680	0.090692	0.908279	21858.320312
5536.618734	0.090670	0.908279	21953.886719
5537.641487	1.509203	0.900871	754.601440
5537.642478	1.870587	0.900871	2608.353271
5537.643373	1.820010	0.900871	4237.262207
5537.644250	1.765258	0.900871	5785.393066
5537.645248	1.705247	0.900871	7487.229004
5537.646181	1.650392	0.900871	9027.044922
5537.647108	1.600767	0.900871	10510.955078
5537.647977	1.554587	0.900871	11861.891602
5537.649017	1.503809	0.900871	13425.852539
5537.649902	1.459482	0.900871	14717.494141
5537.650775	1.418071	0.900871	15955.470703
5537.651774	1.373119	0.900871	17327.216797
5537.652719	1.330964	0.900871	18584.978516
5537.653623	1.293003	0.900871	19753.853516
5537.654507	1.252167	0.900871	20860.769531
5537.655536	0.221565	0.900871	21088.759766
5537.656435	0.090410	0.900871	21170.039062
5537.657306	0.090564	0.900871	21248.919922
5537.658233	0.090601	0.900871	21332.906250
5537.659219	0.090513	0.900871	21422.152344
5537.660088	0.090582	0.900871	21500.869141
5537.660950	0.090524	0.900871	21578.900391
5537.662042	0.090597	0.900871	21677.832031
5537.662930	0.090557	0.900871	21758.246094
5537.663801	0.090480	0.900871	21837.054687
5538.686903	1.437026	0.982388	607.862183
5538.688000	1.868273	0.982388	2657.357422
5538.688993	1.811704	0.982388	4456.379395
5538.689890	1.755916	0.982388	6031.435547
5538.690884	1.696542	0.982388	7717.797852
5538.691933	1.637505	0.982388	9435.540039
5538.692835	1.588766	0.982388	10868.606445
5538.693700	1.542246	0.982388	12202.649414
5538.694799	1.488834	0.982388	13838.877930
5538.695768	1.441963	0.982388	15236.139648
5538.696634	1.401383	0.982388	16449.738281
5538.697720	1.352878	0.982388	17918.964844
5538.698754	1.309424	0.982388	19272.908203
5538.699641	1.273671	0.982388	20402.654297
5538.700581	0.761495	0.982388	21118.458984
5538.701638	0.091014	0.982388	21214.662109
5538.702560	0.090557	0.982388	21298.156250
5538.703424	0.090645	0.982388	21376.472656
5538.704461	0.090608	0.982388	21470.433594
5538.705485	0.090549	0.982388	21563.156250
5538.706376	0.090593	0.982388	21643.875000
5538.707323	0.090667	0.982388	21729.736328
5538.708377	0.090542	0.982388	21825.167969
5538.709303	0.090560	0.982388	21909.027344
5538.710165	0.090505	0.982388	21987.042969
5539.733942	1.433998	0.974416	602.279053
5539.735040	1.868610	0.974416	2654.012451
5539.735965	1.815582	0.974416	4333.425781
5539.736850	1.760369	0.974416	5891.352051
5539.737822	1.702617	0.974416	7546.295898
5539.738829	1.644836	0.974416	9202.646484
5539.739715	1.597042	0.974416	10617.625977
5539.740578	1.550834	0.974416	11955.995117
5539.741674	1.497026	0.974416	13596.736328
5539.742596	1.450928	0.974416	14934.492187
5539.743475	1.410029	0.974416	16173.908203
5539.744450	1.366091	0.974416	17505.847656
5539.745472	1.321622	0.974416	18856.544922
5539.746365	1.285408	0.974416	20004.414062
5539.747329	1.061770	0.974416	21027.960937
5539.748378	0.105985	0.974416	21139.138672
5539.749287	0.090491	0.974416	21221.394531
5539.750150	0.090619	0.974416	21299.599609
5539.751221	0.090670	0.974416	21396.707031
5539.752212	0.090524	0.974416	21486.416016
5539.753099	0.090560	0.974416	21566.742187
5539.754093	0.090674	0.974416	21656.871094
5539.755145	0.090549	0.974416	21752.128906
5539.756043	0.090582	0.974416	21833.472656
5539.756907	0.090677	0.974416	21911.818359
5540.778515	1.510858	0.965820	747.874756
5540.779402	1.872063	0.965820	2408.394531
5540.780277	1.826111	0.965820	4006.241455
5540.781204	1.767125	0.965820	5644.366699
5540.782216	1.707136	0.965820	7371.988281
5540.783145	1.654973	0.965820	8909.458008
5540.784023	1.607219	0.965820	10320.596680
5540.785058	1.554100	0.965820	11929.090820
5540.785969	1.506207	0.965820	13301.246094
5540.786888	1.461138	0.965820	14644.031250
5540.787757	1.418730	0.965820	15876.908203
5540.788805	1.372676	0.965820	17315.472656
5540.789708	1.334051	0.965820	18520.121094
5540.790571	1.297716	0.965820	19640.050781
5540.791674	1.224972	0.965820	20991.195312
5540.792574	0.195963	0.965820	21167.562500
5540.793441	0.090516	0.965820	21246.041016
5540.794448	0.090696	0.965820	21337.371094
5540.795442	0.090604	0.965820	21427.431641
5540.796317	0.090458	0.965820	21506.582031
5540.797179	0.090593	0.965820	21584.673828
5540.798274	0.090615	0.965820	21683.898437
5540.799177	0.090579	0.965820	21765.691406
5540.800058	0.090604	0.965820	21845.513672
5540.801045	0.090619	0.965820	21934.955078
5541.825494	1.448943	0.970867	633.188049
5541.826364	1.875088	0.970867	2264.514404
5541.827225	1.833746	0.970867	3843.370117
5541.828256	1.769692	0.970867	5667.922852
5541.829164	1.712369	0.970867	7222.753906
5541.830088	1.660078	0.970867	8756.666016
5541.830956	1.610208	0.970867	10154.326172
5541.832010	1.557506	0.970867	11795.937500
5541.832907	1.512221	0.970867	13152.399414
5541.833792	1.467953	0.970867	14451.538086
5541.834787	1.421440	0.970867	15865.871094
5541.835723	1.377700	0.970867	17155.398437
5541.836646	1.338322	0.970867	18390.669922
5541.837514	1.301719	0.970867	19520.562500
5541.838552	1.263644	0.970867	20832.224609
5541.839442	0.389978	0.970867	21179.304687
5541.840297	0.090388	0.970867	21256.585937
5541.841338	0.090575	0.970867	21350.875000
5541.842277	0.090428	0.970867	21435.787109
5541.843151	0.090623	0.970867	21514.992187
5541.844092	0.090615	0.970867	21600.261719
5541.845123	0.090560	0.970867	21693.628906
5541.846022	0.090513	0.970867	21775.000000
5541.846886	0.090436	0.970867	21853.136719
5541.847941	0.090608	0.970867	21948.728516
5541.848892	0.090498	0.970867	22034.792969
5542.869456	1.466572	0.968619	651.158081
5542.870334	1.874901	0.968619	2297.321289
5542.871344	1.825309	0.968619	4140.883301
5542.872276	1.765290	0.968619	5786.133789
5542.873202	1.709817	0.968619	7369.424316
5542.874063	1.658456	0.968619	8797.354492
5542.875087	1.603257	0.968619	10439.089844
5542.875994	1.556323	0.968619	11850.674805
5542.876872	1.512151	0.968619	13178.343750
5542.877825	1.464803	0.968619	14574.301758
5542.878784	1.418862	0.968619	15934.990234
5542.879704	1.376653	0.968619	17201.511719
5542.880586	1.338051	0.968619	18381.671875
5542.881622	1.297255	0.968619	19725.626953
5542.882513	1.263281	0.968619	20851.210937
5542.883383	0.404165	0.968619	21202.833984
5542.884419	0.090505	0.968619	21296.597656
5542.885387	0.090575	0.968619	21384.273437
5542.886256	0.090634	0.968619	21463.033203
5542.887135	0.090582	0.968619	21542.654297
5542.888248	0.090623	0.968619	21643.517578
5542.889128	0.090465	0.968619	21723.126953
5542.889995	0.090619	0.968619	21801.693359
5542.891059	0.090637	0.968619	21898.130859
5542.892024	0.090582	0.968619	21985.542969
5542.892895	0.090608	0.968619	22064.462891
5543.918124	1.533483	1.009096	828.080627
5543.919012	1.872638	1.009096	2490.983154
5543.919881	1.822394	1.009096	4074.643311
5543.921007	1.755223	1.009096	6051.024902
5543.921966	1.698369	1.009096	7679.760742
5543.922835	1.648872	1.009096	9112.630859
5543.923847	1.594120	1.009096	10725.879883
5543.924896	1.540631	1.009096	12342.001953
5543.925791	1.494792	1.009096	13679.840820
5543.926726	1.449016	1.009096	15034.670898
5543.927793	1.399061	1.009096	16527.468750
5543.928735	1.357679	1.009096	17806.402344
5543.929607	1.320784	1.009096	18958.125000
5543.930678	1.279504	1.009096	20328.474609
5543.931702	0.742852	1.009096	21089.154297
5543.932586	0.091597	1.009096	21170.125000
5543.933543	0.090652	1.009096	21256.878906
5543.934597	0.090571	1.009096	21352.341797
5543.935520	0.090575	1.009096	21435.943359
5543.936383	0.090634	1.009096	21514.160156
5543.937452	0.090619	1.009096	21611.031250
5543.938439	0.090516	1.009096	21700.371094
5543.939323	0.090626	1.009096	21780.484375
5543.940313	0.090634	1.009096	21870.210937
5543.941365	0.090619	1.009096	21965.542969
5544.961518	1.489947	0.978839	709.214966
5544.962399	1.875714	0.978839	2361.719238
5544.963350	1.827188	0.978839	4099.374512
5544.964417	1.759526	0.978839	5976.789062
5544.965349	1.702786	0.978839	7563.785156
5544.966215	1.652476	0.978839	8994.829102
5544.967300	1.594552	0.978839	10724.917969
5544.968306	1.542905	0.978839	12277.080078
5544.969200	1.496880	0.978839	13615.291016
5544.970079	1.453993	0.978839	14893.350586
5544.971083	1.407836	0.978839	16306.817383
5544.972030	1.364224	0.978839	17598.736328
5544.972956	1.325061	0.978839	18825.742187
5544.973820	1.288469	0.978839	19938.980469
5544.974853	1.083710	0.978839	21058.453125
5544.975755	0.121403	0.978839	21167.958984
5544.976629	0.090465	0.978839	21247.025391
5544.977580	0.090710	0.978839	21333.291016
5544.978544	0.090553	0.978839	21420.583984
5544.979464	0.090538	0.978839	21503.878906
5544.980337	0.090524	0.978839	21582.906250
5544.981396	0.090623	0.978839	21678.875000
5544.982291	0.090480	0.978839	21759.853516
5544.983167	0.090527	0.978839	21839.156250
5544.984059	0.090645	0.978839	21920.011719
5546.010159	1.535607	1.018394	833.834473
5546.011228	1.866127	1.018394	2828.723877
5546.012133	1.811781	1.018394	4468.385742
5546.013000	1.755110	1.018394	5990.065918
5546.014115	1.691979	1.018394	7876.622070
5546.015077	1.637853	1.018394	9452.236328
5546.015942	1.591157	1.018394	10828.587891
5546.016995	1.537884	1.018394	12447.980469
5546.018029	1.485139	1.018394	13983.614258
5546.018910	1.441890	1.018394	15253.918945
5546.019858	1.398069	1.018394	16579.289062
5546.020916	1.351443	1.018394	18009.115234
5546.021861	1.312866	1.018394	19249.773437
5546.022722	1.278640	1.018394	20350.683594
5546.023801	0.670843	1.018394	21074.523437
5546.024816	0.090571	1.018394	21166.453125
5546.025689	0.090469	1.018394	21245.431641
5546.026562	0.090568	1.018394	21324.498047
5546.027519	0.090626	1.018394	21411.226562
5546.028476	0.090597	1.018394	21497.927734
5546.029389	0.090564	1.018394	21580.613281
5546.030259	0.090586	1.018394	21659.423828
5546.031292	0.090656	1.018394	21753.070312
5546.032192	0.090619	1.018394	21834.626953
5546.033061	0.090568	1.018394	21913.330078
5547.051982	1.462214	0.922487	638.987671
5547.052847	1.874711	0.922487	2260.612305
5547.053947	1.820658	0.922487	4263.335937
5547.054923	1.759145	0.922487	5980.261719
5547.055789	1.706635	0.922487	7458.207031
5547.056811	1.649015	0.922487	9143.500000
5547.057856	1.593333	0.922487	10808.532227
5547.058742	1.546685	0.922487	12178.894531
5547.059640	1.499231	0.922487	13525.204102
5547.060727	1.447610	0.922487	15098.755859
5547.061683	1.402837	0.922487	16439.867187
5547.062546	1.364158	0.922487	17617.134766
5547.063574	1.321875	0.922487	18976.021484
5547.064604	1.280398	0.922487	20294.832031
5547.065499	0.947003	0.922487	21142.400391
5547.066446	0.100206	0.922487	21237.294922
5547.067506	0.090575	0.922487	21333.304687
5547.068444	0.090579	0.922487	21418.267578
5547.069310	0.090637	0.922487	21496.759766
5547.070375	0.090729	0.922487	21593.386719
5547.071379	0.090542	0.922487	21684.291016
5547.072266	0.090579	0.922487	21764.634766
5547.073232	0.090601	0.922487	21852.154297
5547.074282	0.090637	0.922487	21947.324219
5547.075205	0.090542	0.922487	22030.894531
5548.102604	1.446072	1.016818	631.933350
5548.103465	1.874850	1.016818	2246.179199
5548.104537	1.823053	1.016818	4200.492187
5548.105410	1.766389	1.016818	5742.549805
5548.106289	1.713691	1.016818	7248.884766
5548.107238	1.659895	1.016818	8824.125000
5548.108214	1.606337	1.016818	10391.909180
5548.109134	1.558737	1.016818	11825.947266
5548.110016	1.513422	1.016818	13160.785156
5548.111055	1.462797	1.016818	14680.630859
5548.111945	1.419437	1.016818	15943.929687
5548.112810	1.379883	1.016818	17137.527344
5548.113869	1.334443	1.016818	18550.703125
5548.114829	1.295109	1.016818	19794.007812
5548.115709	1.261014	1.016818	20903.701172
5548.116576	0.345765	1.016818	21203.480469
5548.117686	0.090579	1.016818	21304.023437
5548.118568	0.090535	1.016818	21383.875000
5548.119432	0.090590	1.016818	21462.144531
5548.120491	0.090688	1.016818	21558.183594
5548.121463	0.090604	1.016818	21646.250000
5548.122348	0.090586	1.016818	21726.417969
5548.123210	0.090564	1.016818	21804.484375
5548.124318	0.090641	1.016818	21904.914062
5548.125226	0.090542	1.016818	21987.126953
5548.126090	0.090656	1.016818	22065.453125
5549.142964	1.422012	0.952128	597.244934
5549.143932	1.873381	0.952128	2410.678223
5549.144885	1.824749	0.952128	4149.663574
5549.145816	1.766547	0.952128	5794.318359
5549.146687	1.713384	0.952128	7286.675781
5549.147711	1.655079	0.952128	8981.476562
5549.148597	1.606212	0.952128	10404.580078
5549.149471	1.560516	0.952128	11768.471680
5549.150411	1.512792	0.952128	13190.496094
5549.151411	1.463232	0.952128	14653.728516
5549.152281	1.420693	0.952128	15889.731445
5549.153155	1.378572	0.952128	17094.603516
5549.154285	1.332968	0.952128	18600.857422
5549.155188	1.297295	0.952128	19772.314453
5549.156060	1.262461	0.952128	20873.179687
5549.157090	0.262786	0.952128	21143.849609
5549.158060	0.090432	0.952128	21231.568359
5549.158932	0.090626	0.952128	21310.593750
5549.159790	0.090641	0.952128	21388.363281
5549.160897	0.090626	0.952128	21488.685547
5549.161792	0.090619	0.952128	21569.789062
5549.162663	0.090593	0.952128	21648.695312
5549.163682	0.090604	0.952128	21741.021484
5549.164664	0.090505	0.952128	21829.898437
5549.165543	0.090568	0.952128	21909.507812
5549.166542	0.090656	0.952128	22000.072266
5550.195134	1.436653	0.992435	610.577454
5550.196031	1.873733	0.992435	2291.315918
5550.197123	1.818973	0.992435	4277.634766
5550.198076	1.759545	0.992435	5954.480957
5550.198950	1.707089	0.992435	7446.476562
5550.199982	1.648356	0.992435	9147.580078
5550.201007	1.593190	0.992435	10780.599609
5550.201900	1.546875	0.992435	12161.958984
5550.202783	1.501879	0.992435	13488.118164
5550.203753	1.454755	0.992435	14899.230469
5550.204728	1.408319	0.992435	16272.341797
5550.205647	1.367948	0.992435	17529.486328
5550.206519	1.331038	0.992435	18690.150391
5550.207564	1.289476	0.992435	20037.652344
5550.208453	1.176295	0.992435	21083.378906
5550.209330	0.159587	0.992435	21223.337891
5550.210249	0.090542	0.992435	21306.546875
5550.211240	0.090560	0.992435	21396.292969
5550.212156	0.090590	0.992435	21479.273437
5550.213042	0.090630	0.992435	21559.572266
5550.214027	0.090630	0.992435	21648.841797
5550.214946	0.090579	0.992435	21732.083984
5550.215871	0.090564	0.992435	21815.855469
5550.216734	0.090557	0.992435	21894.005859
5550.217760	0.090516	0.992435	21986.875000
5551.233604	1.564563	0.979395	854.251343
5551.234571	1.871755	0.979395	2664.238770
5551.235447	1.822116	0.979395	4260.412109
5551.236337	1.764056	0.979395	5830.422363
5551.237450	1.700270	0.979395	7722.822266
5551.238331	1.648843	0.979395	9175.453125
5551.239194	1.601649	0.979395	10557.676758
5551.240240	1.548007	0.979395	12176.891602
5551.241203	1.498572	0.979395	13620.016602
5551.242069	1.455223	0.979395	14880.240234
5551.242954	1.411725	0.979395	16129.617187
5551.244065	1.364235	0.979395	17645.281250
5551.244954	1.325735	0.979395	18823.859375
5551.245842	1.289553	0.979395	19968.982422
5551.246943	0.972129	0.979395	21039.296875
5551.247912	0.097841	0.979395	21134.103516
5551.248777	0.090571	0.979395	21212.447266
5551.249812	0.090758	0.979395	21306.382812
5551.250849	0.090626	0.979395	21400.361328
5551.251740	0.090546	0.979395	21481.037109
5551.252677	0.090634	0.979395	21565.960937
5551.253740	0.090659	0.979395	21662.332031
5551.254683	0.090564	0.979395	21747.734375
5551.255542	0.090590	0.979395	21825.550781
5551.256597	0.090670	0.979395	21921.207031
5552.286731	1.499692	0.931200	755.844971
5552.287699	1.872686	0.931200	2568.604492
5552.288576	1.824280	0.931200	4168.498047
5552.289581	1.761379	0.931200	5938.684570
5552.290641	1.699054	0.931200	7739.681641
5552.291537	1.647125	0.931200	9215.505859
5552.292405	1.597727	0.931200	10602.333008
5552.293513	1.542598	0.931200	12311.531250
5552.294471	1.494056	0.931200	13742.837891
5552.295338	1.451276	0.931200	15001.093750
5552.296379	1.402822	0.931200	16461.431641
5552.297416	1.357214	0.931200	17868.863281
5552.298304	1.320839	0.931200	19041.767578
5552.299250	1.282712	0.931200	20255.212891
5552.300309	0.778121	0.931200	21079.244141
5552.301241	0.091915	0.931200	21164.910156
5552.302101	0.090597	0.931200	21242.824219
5552.303137	0.090652	0.931200	21336.740234
5552.304168	0.090553	0.931200	21430.099609
5552.305045	0.090516	0.931200	21509.482422
5552.305995	0.090674	0.931200	21595.623047
5552.307044	0.090542	0.931200	21690.601562
5552.307966	0.090568	0.931200	21774.105469
5552.308832	0.090593	0.931200	21852.558594
5552.309887	0.090732	0.931200	21948.281250
5553.324997	1.439663	0.967512	621.934448
5553.325985	1.873564	0.967512	2473.016113
5553.327034	1.818530	0.967512	4380.654297
5553.327947	1.760574	0.967512	5988.058105
5553.328809	1.706276	0.967512	7458.867676
5553.329875	1.646891	0.967512	9214.453125
5553.330874	1.592878	0.967512	10805.738281
5553.331766	1.546831	0.967512	12185.511719
5553.332755	1.496561	0.967512	13665.610352
5553.333825	1.444856	0.967512	15211.606445
5553.334737	1.402006	0.967512	16490.236328
5553.335613	1.362151	0.967512	17683.480469
5553.336476	1.323713	0.967512	18825.845703
5553.337538	1.284192	0.967512	20189.658203
5553.338431	1.050941	0.967512	21128.148437
5553.339313	0.113489	0.967512	21228.246094
5553.340340	0.090586	0.967512	21321.277344
5553.341255	0.090535	0.967512	21404.117187
5553.342178	0.090579	0.967512	21487.720703
5553.343040	0.090615	0.967512	21565.830078
5553.344067	0.090538	0.967512	21658.812500
5553.344939	0.090623	0.967512	21737.835937
5553.345817	0.090564	0.967512	21817.351562
5553.346772	0.090615	0.967512	21903.888672
5553.347711	0.090535	0.967512	21988.900391
5554.379321	1.537086	1.019743	850.008667
5554.380395	1.867592	1.019743	2855.801758
5554.381293	1.814432	1.019743	4485.162109
5554.382158	1.757596	1.019743	6005.482910
5554.383266	1.693835	1.019743	7882.252930
5554.384230	1.639959	1.019743	9463.172852
5554.385096	1.593050	1.019743	10842.754883
5554.386148	1.538796	1.019743	12461.568359
5554.387181	1.486311	1.019743	13996.927734
5554.388069	1.442468	1.019743	15277.839844
5554.389001	1.399698	1.019743	16582.359375
5554.390066	1.353889	1.019743	18024.251953
5554.391009	1.314935	1.019743	19264.236328
5554.391939	1.276934	1.019743	20451.785156
5554.392806	0.845237	1.019743	21184.605469
5554.393835	0.091586	1.019743	21278.847656
5554.394734	0.090575	1.019743	21360.275391
5554.395612	0.090652	1.019743	21439.867187
5554.396530	0.090630	1.019743	21523.064453
5554.397518	0.090505	1.019743	21612.484375
5554.398421	0.090597	1.019743	21694.292969
5554.399307	0.090593	1.019743	21774.558594
5554.400326	0.090641	1.019743	21866.921875
5554.401238	0.090516	1.019743	21949.472656
5554.402160	0.090538	1.019743	22032.949219
5555.415540	1.449437	0.934967	700.078186
5555.416623	1.869221	0.934967	2724.444824
5555.417559	1.814974	0.934967	4423.260742
5555.418432	1.759838	0.934967	5959.599121
5555.419463	1.698640	0.934967	7710.896973
5555.420483	1.640966	0.934967	9384.681641
5555.421378	1.592560	0.934967	10810.022461
5555.422332	1.543795	0.934967	12282.802734
5555.423385	1.489449	0.934967	13851.193359
5555.424328	1.443750	0.934967	15212.649414
5555.425193	1.402537	0.934967	16425.843750
5555.426261	1.356108	0.934967	17874.167969
5555.427272	1.315045	0.934967	19203.677734
5555.428164	1.278197	0.934967	20343.830078
5555.429148	0.766729	0.934967	21098.291016
5555.430196	0.091128	0.934967	21193.792969
5555.431107	0.090656	0.934967	21276.380859
5555.431969	0.090612	0.934967	21354.488281
5555.433056	0.090582	0.934967	21452.951172
5555.434041	0.090487	0.934967	21542.080078
5555.434927	0.090549	0.934967	21622.306641
5555.435929	0.090699	0.934967	21713.187500
5555.436972	0.090520	0.934967	21807.599609
5555.437857	0.090553	0.934967	21887.738281
5555.438712	0.090641	0.934967	21965.236328
5556.472248	1.429288	1.042539	600.301086
5556.473237	1.873396	1.042539	2453.089844
5556.474178	1.824093	1.042539	4169.561523
5556.475112	1.766111	1.042539	5819.109375
5556.475978	1.712695	1.042539	7302.303711
5556.477029	1.654003	1.042539	9040.660156
5556.477928	1.604659	1.042539	10483.249023
5556.478808	1.558425	1.042539	11854.663086
5556.479772	1.509884	1.042539	13310.191406
5556.480745	1.460933	1.042539	14731.678711
5556.481663	1.417511	1.042539	16032.954102
5556.482527	1.378103	1.042539	17223.634766
5556.483549	1.335681	1.042539	18588.701172
5556.484448	1.298390	1.042539	19755.953125
5556.485328	1.262424	1.042539	20866.886719
5556.486227	0.399335	1.042539	21225.888672
5556.487266	0.090469	1.042539	21319.884766
5556.488155	0.090549	1.042539	21400.382812
5556.489016	0.090641	1.042539	21478.423828
5556.490123	0.090656	1.042539	21578.779297
5556.491027	0.090579	1.042539	21660.662109
5556.491901	0.090538	1.042539	21739.792969
5556.492912	0.090765	1.042539	21831.556641
5556.493899	0.090615	1.042539	21920.994141
5556.494784	0.090520	1.042539	22001.103516
5556.495640	0.090582	1.042539	22078.642578
5557.508022	1.426575	0.981885	602.014526
5557.509005	1.873396	0.981885	2443.562988
5557.510059	1.818318	0.981885	4360.070312
5557.510968	1.760486	0.981885	5960.352051
5557.511833	1.706045	0.981885	7436.081055
5557.512951	1.645272	0.981885	9275.495117
5557.513915	1.593186	0.981885	10811.326172
5557.514781	1.548146	0.981885	12152.020508
5557.515823	1.494840	0.981885	13709.643555
5557.516864	1.444131	0.981885	15212.983398
5557.517763	1.402115	0.981885	16473.484375
5557.518703	1.360855	0.981885	17752.687500
5557.519763	1.317074	0.981885	19148.785156
5557.520710	1.277977	0.981885	20359.029297
5557.521576	0.915439	0.981885	21151.800781
5557.522655	0.092589	0.981885	21251.705078
5557.523654	0.090579	0.981885	21342.193359
5557.524539	0.090656	0.981885	21422.423828
5557.525523	0.090751	0.981885	21511.722656
5557.526566	0.090637	0.981885	21606.257812
5557.527475	0.090579	0.981885	21688.593750
5557.528332	0.090608	0.981885	21766.244141
5557.529374	0.090685	0.981885	21860.738281
5557.530381	0.090568	0.981885	21951.939453
5557.531268	0.090714	0.981885	22032.402344
5558.563787	1.443948	0.989998	629.561218
5558.564653	1.877146	0.989998	2255.169678
5558.565676	1.826342	0.989998	4123.517090
5558.566731	1.760343	0.989998	5980.678711
5558.567628	1.705906	0.989998	7510.875977
5558.568545	1.653519	0.989998	9027.153320
5558.569611	1.595881	0.989998	10728.363281
5558.570564	1.546652	0.989998	12202.322266
5558.571431	1.501556	0.989998	13504.171875
5558.572491	1.449921	0.989998	15041.087891
5558.573502	1.402676	0.989998	16459.193359
5558.574394	1.363052	0.989998	17675.035156
5558.575375	1.323398	0.989998	18973.289062
5558.576432	1.279592	0.989998	20325.818359
5558.577361	0.888431	0.989998	21151.171875
5558.578217	0.096339	0.989998	21233.638672
5558.579262	0.090663	0.989998	21328.380859
5558.580261	0.090601	0.989998	21418.890625
5558.581147	0.090527	0.989998	21499.097656
5558.582051	0.090568	0.989998	21580.970703
5558.582923	0.090608	0.989998	21659.980469
5558.583915	0.090546	0.989998	21749.800781
5558.584838	0.090461	0.989998	21833.296875
5558.585699	0.090553	0.989998	21911.263672
5558.586773	0.090630	0.989998	22008.599609
5559.598008	1.430336	0.961699	602.171326
5559.599053	1.872675	0.961699	2559.116211
5559.600097	1.815828	0.961699	4454.840332
5559.600968	1.759933	0.961699	5987.741699
5559.601936	1.702533	0.961699	7635.793945
5559.603000	1.642097	0.961699	9382.985352
5559.603922	1.591696	0.961699	10850.528320
5559.604798	1.545205	0.961699	12204.127930
5559.605869	1.490742	0.961699	13800.712891
5559.606883	1.441586	0.961699	15262.480469
5559.607782	1.399962	0.961699	16521.046875
5559.608774	1.356577	0.961699	17866.771484
5559.609831	1.313394	0.961699	19255.029297
5559.610744	1.275622	0.961699	20419.671875
5559.611619	0.797776	0.961699	21117.726562
5559.612732	0.090901	0.961699	21218.898437
5559.613695	0.090498	0.961699	21306.048828
5559.614559	0.090494	0.961699	21384.236328
5559.615608	0.090593	0.961699	21479.269531
5559.616628	0.090557	0.961699	21571.636719
5559.617515	0.090593	0.961699	21651.992187
5559.618399	0.090535	0.961699	21732.025391
5559.619470	0.090597	0.961699	21829.054687
5559.620423	0.090465	0.961699	21915.267578
5559.621285	0.090491	0.961699	21993.271484
5560.656405	1.510188	0.992669	761.134766
5560.657293	1.875388	0.992669	2426.479492
5560.658155	1.827462	0.992669	4001.751953
5560.659275	1.759515	0.992669	5972.409180
5560.660247	1.701405	0.992669	7626.174805
5560.661110	1.651838	0.992669	9051.710937
5560.662185	1.594138	0.992669	10765.409180
5560.663224	1.540935	0.992669	12366.440430
5560.664107	1.494844	0.992669	13686.387695
5560.665027	1.449265	0.992669	15019.711914
5560.666106	1.399508	0.992669	16529.781250
5560.667038	1.357507	0.992669	17794.978516
5560.667914	1.320615	0.992669	18951.837891
5560.668942	1.279816	0.992669	20267.488281
5560.669981	0.778151	0.992669	21075.986328
5560.670869	0.092131	0.992669	21157.798828
5560.671829	0.090619	0.992669	21244.792969
5560.672882	0.090681	0.992669	21340.279297
5560.673818	0.090593	0.992669	21425.074219
5560.674683	0.090601	0.992669	21503.443359
5560.675757	0.090667	0.992669	21600.818359
5560.676746	0.090597	0.992669	21690.417969
5560.677636	0.090590	0.992669	21771.042969
5560.678602	0.090626	0.992669	21858.587891
5560.679649	0.090619	0.992669	21953.466797
5561.690078	1.487183	0.996451	667.744995
5561.690960	1.876553	0.996451	2322.864502
5561.691821	1.831432	0.996451	3899.727295
5561.692928	1.765430	0.996451	5854.057617
5561.693825	1.710421	0.996451	7388.305664
5561.694695	1.660393	0.996451	8832.847656
5561.695691	1.605948	0.996451	10432.372070
5561.696693	1.552731	0.996451	11988.208008
5561.697591	1.506614	0.996451	13341.147461
5561.698462	1.461064	0.996451	14613.734375
5561.699574	1.410674	0.996451	16182.403320
5561.700487	1.369490	0.996451	17432.748047
5561.701353	1.331005	0.996451	18585.398437
5561.702470	1.287568	0.996451	20023.613281
5561.703454	1.096787	0.996451	21102.851562
5561.704324	0.123973	0.996451	21210.708984
5561.705409	0.090571	0.996451	21308.978516
5561.706447	0.090571	0.996451	21402.992187
5561.707337	0.090465	0.996451	21483.505859
5561.708258	0.090593	0.996451	21566.941406
5561.709315	0.090645	0.996451	21662.751953
5561.710257	0.090571	0.996451	21748.070312
5561.711123	0.090615	0.996451	21826.542969
5561.712149	0.090601	0.996451	21919.500000
5561.713162	0.090553	0.996451	22011.230469
5562.748473	1.532369	1.072216	844.335510
5562.749550	1.866811	1.072216	2854.891357
5562.750445	1.813191	1.072216	4477.697266
5562.751311	1.756223	1.072216	5998.586426
5562.752433	1.691693	1.072216	7896.666016
5562.753405	1.636981	1.072216	9487.811523
5562.754277	1.589810	1.072216	10874.125000
5562.755313	1.536680	1.072216	12466.125000
5562.756351	1.483795	1.072216	14006.304687
5562.757251	1.439784	1.072216	15302.110352
5562.758193	1.395938	1.072216	16617.083984
5562.759269	1.348630	1.072216	18068.210937
5562.760203	1.309574	1.072216	19291.353516
5562.761064	1.274938	1.072216	20389.074219
5562.762116	0.646794	1.072216	21069.501953
5562.763139	0.090366	1.072216	21161.947266
5562.764019	0.090542	1.072216	21241.625000
5562.764983	0.090593	1.072216	21328.957031
5562.766036	0.090472	1.072216	21424.224609
5562.766947	0.090465	1.072216	21506.638672
5562.767806	0.090527	1.072216	21584.402344
5562.768852	0.090615	1.072216	21679.185547
5562.769854	0.090465	1.072216	21769.832031
5562.770740	0.090516	1.072216	21850.029297
5562.771705	0.090601	1.072216	21937.458984
5563.782181	1.529180	0.998860	785.998352
5563.783175	1.871422	0.998860	2646.191895
5563.784067	1.820599	0.998860	4270.166504
5563.785073	1.758146	0.998860	6038.861328
5563.786115	1.695286	0.998860	7805.348633
5563.787008	1.644049	0.998860	9273.484375
5563.787871	1.595076	0.998860	10650.035156
5563.788974	1.540492	0.998860	12349.197266
5563.789941	1.491438	0.998860	13791.417969
5563.790813	1.448214	0.998860	15054.260742
5563.791856	1.399655	0.998860	16514.099609
5563.792891	1.354047	0.998860	17915.537109
5563.793775	1.316499	0.998860	19079.322266
5563.794686	1.279362	0.998860	20244.820312
5563.795800	0.719169	0.998860	21045.974609
5563.796731	0.090974	0.998860	21130.671875
5563.797599	0.090542	0.998860	21209.261719
5563.798622	0.090608	0.998860	21301.953125
5563.799647	0.090542	0.998860	21394.757812
5563.800537	0.090579	0.998860	21475.373047
5563.801492	0.090568	0.998860	21561.865234
5563.802545	0.090615	0.998860	21657.283203
5563.803483	0.090535	0.998860	21742.205078
5563.804349	0.090524	0.998860	21820.597656
5563.805416	0.090652	0.998860	21917.322266
5564.839428	1.498792	1.016271	738.904236
5564.840309	1.874571	1.016271	2390.401611
5564.841219	1.825598	1.016271	4051.695801
5564.842309	1.758494	1.016271	5968.454102
5564.843259	1.702046	1.016271	7585.397461
5564.844132	1.651868	1.016271	9027.477539
5564.845184	1.595427	1.016271	10705.867187
5564.846207	1.542773	1.016271	12284.125000
5564.847108	1.496305	1.016271	13632.295898
5564.848080	1.449554	1.016271	15041.262695
5564.849135	1.399208	1.016271	16517.427734
5564.850065	1.357771	1.016271	17780.154297
5564.850930	1.320374	1.016271	18922.277344
5564.852007	1.278739	1.016271	20299.478516
5564.853024	0.772203	1.016271	21084.808594
5564.853909	0.092344	1.016271	21166.533203
5564.854910	0.090582	1.016271	21257.207031
5564.855960	0.090542	1.016271	21352.275391
5564.856853	0.090575	1.016271	21433.158203
5564.857709	0.090516	1.016271	21510.640625
5564.858761	0.090604	1.016271	21605.957031
5564.859751	0.090483	1.016271	21695.535156
5564.860633	0.090509	1.016271	21775.363281
5564.861616	0.090674	1.016271	21864.496094
5564.862666	0.090597	1.016271	21959.623047
5565.873097	1.440176	0.969127	627.916626
5565.873970	1.875795	0.969127	2265.485352
5565.874835	1.833530	0.969127	3851.489014
5565.875890	1.768304	0.969127	5717.050293
5565.876796	1.711893	0.969127	7268.025391
5565.877725	1.659467	0.969127	8809.669922
5565.878591	1.610010	0.969127	10203.938477
5565.879644	1.557422	0.969127	11843.904297
5565.880532	1.512202	0.969127	13186.740234
5565.881401	1.468195	0.969127	14462.601562
5565.882404	1.420741	0.969127	15887.604492
5565.883321	1.377869	0.969127	17151.109375
5565.884238	1.338706	0.969127	18378.703125
5565.885133	1.301616	0.969127	19543.650391
5565.886172	1.261406	0.969127	20854.251953
5565.887068	0.356898	0.969127	21174.033203
5565.887941	0.090458	0.969127	21253.001953
5565.888920	0.090696	0.969127	21341.792969
5565.889874	0.090538	0.969127	21428.166016
5565.890747	0.090568	0.969127	21507.232422
5565.891694	0.090619	0.969127	21593.048828
5565.892737	0.090538	0.969127	21687.480469
5565.893613	0.090505	0.969127	21766.763672
5565.894469	0.090513	0.969127	21844.242187
5565.895495	0.090626	0.969127	21937.224609
5565.896449	0.090586	0.969127	22023.644531
5566.931518	1.554789	1.023365	855.133850
5566.932582	1.865918	1.023365	2840.470703
5566.933467	1.812953	1.023365	4444.934082
5566.934382	1.754868	1.023365	6050.638672
5566.935477	1.691484	1.023365	7902.813965
5566.936415	1.638647	1.023365	9439.865234
5566.937276	1.591381	1.023365	10810.043945
5566.938315	1.537954	1.023365	12407.978516
5566.939347	1.485469	1.023365	13940.982422
5566.940244	1.441868	1.023365	15234.337891
5566.941203	1.397809	1.023365	16574.835937
5566.942270	1.350472	1.023365	18015.789062
5566.943194	1.312009	1.023365	19228.085937
5566.944067	1.276509	1.023365	20342.478516
5566.945160	0.645015	1.023365	21047.480469
5566.946156	0.090432	1.023365	21137.550781
5566.947044	0.090542	1.023365	21217.951172
5566.948020	0.090648	1.023365	21306.423828
5566.949062	0.090615	1.023365	21400.845703
5566.949965	0.090590	1.023365	21482.648437
5566.950826	0.090696	1.023365	21560.738281
5566.951904	0.090667	1.023365	21658.476562
5566.952877	0.090527	1.023365	21746.560547
5566.953765	0.090538	1.023365	21826.958984
5566.954752	0.090619	1.023365	21916.400391
5567.965257	1.555338	1.037073	858.546631
5567.966223	1.869686	1.037073	2664.663574
5567.967096	1.819387	1.037073	4252.988281
5567.967996	1.761141	1.037073	5838.015625
5567.969104	1.698230	1.037073	7719.654297
5567.969986	1.647301	1.037073	9172.574219
5567.970854	1.600272	1.037073	10561.610352
5567.971873	1.547402	1.037073	12138.413086
5567.972852	1.497601	1.037073	13604.564453
5567.973733	1.453810	1.037073	14885.371094
5567.974613	1.410915	1.037073	16126.976562
5567.975735	1.363011	1.037073	17656.275391
5567.976635	1.323944	1.037073	18847.824219
5567.977502	1.287444	1.037073	19964.039062
5567.978608	0.967844	1.037073	21034.474609
5567.979568	0.097668	1.037073	21128.236328
5567.980432	0.090520	1.037073	21206.445312
5567.981469	0.090802	1.037073	21300.607422
5567.982503	0.090601	1.037073	21394.289062
5567.983382	0.090604	1.037073	21473.929687
5567.984320	0.090677	1.037073	21558.984375
5567.985387	0.090677	1.037073	21655.736328
5567.986318	0.090659	1.037073	21740.140625
5567.987179	0.090582	1.037073	21818.132812
5567.988216	0.090773	1.037073	21912.263672
5569.023421	1.433390	1.080974	609.190674
5569.024393	1.872729	1.080974	2429.483643
5569.025449	1.817402	1.080974	4348.660156
5569.026366	1.759032	1.080974	5961.692383
5569.027295	1.704152	1.080974	7544.849121
5569.028157	1.652882	1.080974	8969.633789
5569.029206	1.597683	1.080974	10645.603516
5569.030090	1.551537	1.080974	12017.162109
5569.030958	1.507588	1.080974	13325.748047
5569.031943	1.458816	1.080974	14762.681641
5569.032890	1.412666	1.080974	16100.476562
5569.033804	1.371903	1.080974	17354.396484
5569.034682	1.333748	1.080974	18525.425781
5569.035730	1.292296	1.080974	19879.751953
5569.036631	1.243103	1.080974	20999.787109
5569.037513	0.228219	1.080974	21201.076172
5569.038455	0.090582	1.080974	21286.404297
5569.039460	0.090590	1.080974	21377.447266
5569.040335	0.090564	1.080974	21456.691406
5569.041203	0.090656	1.080974	21535.380859
5569.042295	0.090601	1.080974	21634.316406
5569.043170	0.090560	1.080974	21713.556641
5569.044036	0.090542	1.080974	21791.966797
5569.045062	0.090740	1.080974	21885.066406
5569.046031	0.090590	1.080974	21972.847656
5570.057783	1.549607	1.021141	852.283813
5570.058837	1.865958	1.021141	2819.003906
5570.059739	1.812722	1.021141	4454.079102
5570.060617	1.754993	1.021141	5994.962891
5570.061736	1.691327	1.021141	7887.557617
5570.062691	1.638131	1.021141	9451.972656
5570.063561	1.591062	1.021141	10836.196289
5570.064583	1.538965	1.021141	12409.018555
5570.065630	1.485919	1.021141	13964.776367
5570.066524	1.441692	1.021141	15253.648437
5570.067456	1.398435	1.021141	16556.990234
5570.068527	1.351388	1.021141	18004.326172
5570.069478	1.311903	1.021141	19251.945312
5570.070346	1.276707	1.021141	20360.126953
5570.071414	0.661472	1.021141	21066.580078
5570.072413	0.090542	1.021141	21157.031250
5570.073296	0.090568	1.021141	21237.001953
5570.074261	0.090681	1.021141	21324.509766
5570.075296	0.090571	1.021141	21418.251953
5570.076212	0.090557	1.021141	21501.201172
5570.077071	0.090619	1.021141	21579.042969
5570.078150	0.090645	1.021141	21676.847656
5570.079137	0.090538	1.021141	21766.208984
5570.080010	0.090586	1.021141	21845.291016
5570.080980	0.090593	1.021141	21933.166016
5571.115031	1.518699	1.047901	766.942810
5571.115984	1.873176	1.047901	2552.079834
5571.116862	1.824690	1.047901	4154.157715
5571.117914	1.759080	1.047901	6004.709473
5571.118933	1.697765	1.047901	7734.731934
5571.119807	1.647524	1.047901	9174.667969
5571.120771	1.595768	1.047901	10712.988281
5571.121838	1.540510	1.047901	12356.712891
5571.122770	1.492445	1.047901	13747.671875
5571.123643	1.448708	1.047901	15012.394531
5571.124704	1.400120	1.047901	16497.921875
5571.125712	1.355625	1.047901	17864.392578
5571.126605	1.319004	1.047901	19042.263672
5571.127581	1.280065	1.047901	20291.607422
5571.128644	0.729360	1.047901	21066.917969
5571.129549	0.091300	1.047901	21149.544922
5571.130409	0.090663	1.047901	21227.515625
5571.131507	0.090619	1.047901	21327.015625
5571.132477	0.090538	1.047901	21414.837891
5571.133360	0.090472	1.047901	21494.724609
5571.134373	0.090659	1.047901	21586.562500
5571.135409	0.090520	1.047901	21680.341797
5571.136293	0.090568	1.047901	21760.404297
5571.137155	0.090553	1.047901	21838.460937
5571.138252	0.090648	1.047901	21937.902344
5572.149197	1.455634	0.986163	637.567505
5572.150074	1.876703	0.986163	2283.436035
5572.150941	1.834215	0.986163	3873.700439
5572.151996	1.769282	0.986163	5740.292969
5572.152885	1.714607	0.986163	7264.578613
5572.153763	1.663092	0.986163	8724.773437
5572.154654	1.612507	0.986163	10161.517578
5572.155701	1.559205	0.986163	11794.005859
5572.156579	1.514227	0.986163	13123.497070
5572.157463	1.469791	0.986163	14422.792969
5572.158459	1.422766	0.986163	15839.868164
5572.159396	1.379187	0.986163	17132.166016
5572.160281	1.341255	0.986163	18319.175781
5572.161274	1.301576	0.986163	19611.640625
5572.162287	1.260377	0.986163	20888.402344
5572.163185	0.322354	0.986163	21177.875000
5572.164044	0.090443	0.986163	21255.566406
5572.165118	0.090634	0.986163	21352.906250
5572.166026	0.090546	0.986163	21435.121094
5572.166900	0.090538	0.986163	21514.251953
5572.167889	0.090721	0.986163	21603.974609
5572.168898	0.090560	0.986163	21695.349609
5572.169778	0.090571	0.986163	21775.052734
5572.170634	0.090582	0.986163	21852.591797
5572.171676	0.090637	0.986163	21947.035156
5572.172612	0.090483	0.986163	22031.728516
5573.206976	1.440699	1.113466	612.297241
5573.208096	1.867456	1.113466	2703.848145
5573.209071	1.811569	1.113466	4470.127441
5573.209944	1.756538	1.113466	6003.584961
5573.210986	1.695033	1.113466	7769.809570
5573.212017	1.637406	1.113466	9457.974609
5573.212904	1.589733	1.113466	10868.067383
5573.213858	1.541246	1.113466	12338.416016
5573.214899	1.487688	1.113466	13887.099609
5573.215834	1.442450	1.113466	15235.790039
5573.216699	1.401226	1.113466	16447.849609
5573.217752	1.355449	1.113466	17875.136719
5573.218771	1.312991	1.113466	19213.074219
5573.219649	1.277399	1.113466	20334.630859
5573.220629	0.763099	1.113466	21082.468750
5573.221708	0.090905	1.113466	21180.554687
5573.222603	0.090593	1.113466	21261.634766
5573.223471	0.090582	1.113466	21340.259766
5573.224539	0.090667	1.113466	21437.091797
5573.225524	0.090527	1.113466	21526.261719
5573.226417	0.090590	1.113466	21607.158203
5573.227388	0.090677	1.113466	21695.205078
5573.228435	0.090623	1.113466	21790.085937
5573.229342	0.090531	1.113466	21872.197266
5573.230202	0.090623	1.113466	21950.132812
5574.241296	1.508075	0.996077	764.593994
5574.242253	1.872601	0.996077	2556.673340
5574.243123	1.824496	0.996077	4143.984375
5574.244146	1.760273	0.996077	5944.744141
5574.245201	1.698018	0.996077	7736.152832
5574.246097	1.646770	0.996077	9211.658203
5574.247035	1.596647	0.996077	10709.312500
5574.248094	1.541374	0.996077	12341.627930
5574.249040	1.492756	0.996077	13753.775391
5574.249907	1.449661	0.996077	15010.630859
5574.250962	1.400544	0.996077	16488.205078
5574.251968	1.356339	0.996077	17852.681641
5574.252853	1.319546	0.996077	19020.480469
5574.253825	1.281237	0.996077	20265.841797
5574.254874	0.774899	0.996077	21078.710937
5574.255783	0.092128	0.996077	21162.455078
5574.256642	0.090612	0.996077	21240.291016
5574.257725	0.090714	0.996077	21338.535156
5574.258725	0.090542	0.996077	21429.078125
5574.259600	0.090494	0.996077	21508.259766
5574.260468	0.090524	0.996077	21586.833984
5574.261444	0.090597	0.996077	21675.255859
5574.262381	0.090553	0.996077	21760.103516
5574.263297	0.090571	0.996077	21843.066406
5574.264175	0.090630	0.996077	21922.638672
5575.298057	1.502670	1.074254	749.832092
5575.298992	1.873905	1.074254	2501.933350
5575.299861	1.825814	1.074254	4088.565918
5575.300940	1.758886	1.074254	5986.403320
5575.301948	1.698047	1.074254	7698.034668
5575.302841	1.647213	1.074254	9168.996094
5575.303825	1.594468	1.074254	10737.952148
5575.304878	1.540935	1.074254	12360.556641
5575.305783	1.493914	1.074254	13712.548828
5575.306647	1.450042	1.074254	14965.384766
5575.307756	1.399871	1.074254	16517.841797
5575.308732	1.356310	1.074254	17841.599609
5575.309604	1.320092	1.074254	18992.718750
5575.310630	1.279479	1.074254	20305.464844
5575.311687	0.735787	1.074254	21083.191406
5575.312561	0.091655	1.074254	21163.298828
5575.313440	0.090626	1.074254	21242.958984
5575.314535	0.090670	1.074254	21342.242187
5575.315496	0.090612	1.074254	21429.320312
5575.316365	0.090560	1.074254	21508.017578
5575.317373	0.090659	1.074254	21599.402344
5575.318417	0.090648	1.074254	21694.039062
5575.319303	0.090586	1.074254	21774.298828
5575.320228	0.090663	1.074254	21858.162109
5575.321293	0.090674	1.074254	21954.730469
5576.333900	1.576977	1.066238	897.300171
5576.334948	1.865779	1.066238	2852.636230
5576.335839	1.812455	1.066238	4467.533203
5576.336758	1.755004	1.066238	6080.381348
5576.337834	1.691433	1.066238	7900.363281
5576.338789	1.638131	1.066238	9464.778320
5576.339656	1.591080	1.066238	10844.245117
5576.340699	1.538372	1.066238	12448.766602
5576.341709	1.486501	1.066238	13950.132812
5576.342598	1.443391	1.066238	15233.307617
5576.343552	1.399431	1.066238	16568.365234
5576.344595	1.352948	1.066238	17979.490234
5576.345530	1.314335	1.066238	19208.392578
5576.346397	1.278563	1.066238	20316.906250
5576.347460	0.721362	1.066238	21083.714844
5576.348475	0.090707	1.066238	21175.783203
5576.349349	0.090509	1.066238	21254.888672
5576.350332	0.090579	1.066238	21343.927734
5576.351381	0.090681	1.066238	21439.052734
5576.352280	0.090520	1.066238	21520.429687
5576.353146	0.090546	1.066238	21598.841797
5576.354217	0.090590	1.066238	21695.863281
5576.355198	0.090571	1.066238	21784.712891
5576.356087	0.090498	1.066238	21865.166016
5576.357069	0.090593	1.066238	21954.128906
5577.388987	1.436404	1.093792	610.471619
5577.389849	1.874462	1.093792	2226.257568
5577.390991	1.819065	1.093792	4303.629883
5577.391957	1.758699	1.093792	6002.533203
5577.392828	1.706287	1.093792	7488.708984
5577.393853	1.647935	1.093792	9177.841797
5577.394897	1.591838	1.093792	10839.720703
5577.395796	1.545125	1.093792	12228.787109
5577.396729	1.496971	1.093792	13625.460937
5577.397817	1.444222	1.093792	15196.774414
5577.398762	1.399413	1.093792	16519.218750
5577.399687	1.358646	1.093792	17775.966797
5577.400556	1.321996	1.093792	18924.781250
5577.401605	1.280285	1.093792	20267.798828
5577.402486	0.984177	1.093792	21134.859375
5577.403362	0.103608	1.093792	21225.621094
5577.404302	0.090575	1.093792	21310.761719
5577.405273	0.090524	1.093792	21398.660156
5577.406187	0.090535	1.093792	21481.408203
5577.407065	0.090593	1.093792	21560.949219
5577.408074	0.090670	1.093792	21652.435547
5577.408980	0.090579	1.093792	21734.500000
5577.409896	0.090604	1.093792	21817.494141
5577.410760	0.090630	1.093792	21895.798828
5577.411796	0.090582	1.093792	21989.642578
5578.425793	1.435920	1.041524	610.266174
5578.426661	1.875348	1.041524	2238.068115
5578.427743	1.822214	1.041524	4209.704102
5578.428666	1.764035	1.041524	5837.908203
5578.429550	1.710593	1.041524	7350.072754
5578.430512	1.656376	1.041524	8943.505859
5578.431539	1.599778	1.041524	10586.477539
5578.432433	1.553405	1.041524	11975.220703
5578.433299	1.508178	1.041524	13281.302734
5578.434371	1.456370	1.041524	14842.531250
5578.435308	1.411948	1.041524	16165.526367
5578.436187	1.371976	1.041524	17371.494141
5578.437160	1.331495	1.041524	18667.039062
5578.438194	1.289249	1.041524	20000.123047
5578.439069	1.205610	1.041524	21055.031250
5578.440040	0.179923	1.041524	21229.736328
5578.441105	0.090626	1.041524	21326.253906
5578.442011	0.090623	1.041524	21408.357422
5578.442877	0.090593	1.041524	21486.810547
5578.443932	0.090663	1.041524	21582.458984
5578.444935	0.090568	1.041524	21673.298828
5578.445832	0.090557	1.041524	21754.527344
5578.446800	0.090623	1.041524	21842.250000
5578.447844	0.090615	1.041524	21936.851562
5578.448763	0.090520	1.041524	22020.039062
5579.480599	1.516337	1.111637	773.331726
5579.481589	1.870404	1.111637	2625.031494
5579.482481	1.819746	1.111637	4248.245117
5579.483479	1.757725	1.111637	6002.454102
5579.484549	1.694795	1.111637	7815.884766
5579.485451	1.642826	1.111637	9297.713867
5579.486318	1.593863	1.111637	10679.593750
5579.487430	1.539005	1.111637	12390.967773
5579.488389	1.490405	1.111637	13820.266602
5579.489256	1.447621	1.111637	15075.353516
5579.490300	1.399252	1.111637	16536.171875
5579.491339	1.353699	1.111637	17942.664062
5579.492234	1.316503	1.111637	19120.933594
5579.493175	1.278387	1.111637	20323.896484
5579.494230	0.704403	1.111637	21067.041016
5579.495170	0.090941	1.111637	21152.525391
5579.496027	0.090619	1.111637	21230.185547
5579.497070	0.090725	1.111637	21324.812500
5579.498088	0.090549	1.111637	21416.992187
5579.498961	0.090590	1.111637	21496.076172
5579.499913	0.090615	1.111637	21582.341797
5579.500973	0.090623	1.111637	21678.402344
5579.501901	0.090663	1.111637	21762.537109
5579.502769	0.090619	1.111637	21841.193359
5579.503835	0.090637	1.111637	21937.812500
5580.517901	1.506863	1.039393	745.897095
5580.518787	1.876545	1.039393	2408.516357
5580.519650	1.831443	1.039393	3989.051514
5580.520671	1.766891	1.039393	5793.046875
5580.521638	1.709066	1.039393	7445.713867
5580.522520	1.658533	1.039393	8908.540039
5580.523410	1.608413	1.039393	10340.027344
5580.524508	1.553137	1.039393	12045.372070
5580.525403	1.506639	1.039393	13393.814453
5580.526274	1.463090	1.039393	14668.166016
5580.527327	1.414406	1.039393	16157.535156
5580.528307	1.371255	1.039393	17501.365234
5580.529191	1.332740	1.039393	18679.507812
5580.530096	1.293461	1.039393	19850.089844
5580.531179	1.143483	1.039393	21088.482422
5580.532060	0.139819	1.039393	21211.664062
5580.532953	0.090472	1.039393	21292.455078
5580.534043	0.090641	1.039393	21391.253906
5580.534987	0.090564	1.039393	21476.746094
5580.535843	0.090465	1.039393	21554.183594
5580.536859	0.090685	1.039393	21646.320312
5580.537895	0.090483	1.039393	21740.060547
5580.538783	0.090472	1.039393	21820.400391
5580.539706	0.090549	1.039393	21903.976562
5580.540780	0.090604	1.039393	22001.285156
